File: data/xrd_icdd_PDF/00-051-0097 (PD3).csv
8,6753
8.28,6577
8.56,6550
8.84,6370
9.12,6630
9.4,6495
9.68,6170
9.96,5999
10.24,5964
10.52,5861
10.8,5763
11.08,5797
11.36,5904
11.64,7008
11.92,16410
12.2,5967
12.48,5398
12.76,5525
13.04,5358
13.32,5347
13.6,5433
13.88,5362
14.16,5242
14.44,5114
14.72,5189
15,5655
15.28,5495
15.56,4907
15.84,4870
16.12,4836
16.4,4821
16.68,4819
16.96,4636
17.24,4678
17.52,4684
17.8,4576
18.08,4694
18.36,8682
18.64,6709
18.92,4366
19.2,4415
19.48,4331
19.76,4368
20.04,4361
20.32,4153
20.6,4167
20.88,4112
21.16,4142
21.44,4176
21.72,6107
22,15310
22.28,5706
22.56,3885
22.84,3729
23.12,3670
23.4,3561
23.68,3568
23.96,3714
24.24,3565
24.52,4194
24.8,3349
25.08,3361
25.36,3272
25.64,3424
25.92,3556
26.2,3144
26.48,3027
26.76,3068
27.04,3632
27.32,4914
27.6,3450
27.88,2982
28.16,3168
28.44,2981
28.72,3594
29,2894
29.28,2868
29.56,2972
29.84,2996
30.12,14320
30.4,16251
30.68,6826
30.96,3404
31.24,2944
31.52,3352
31.8,12988
32.08,3595
32.36,19283
32.64,3460
32.92,2639
33.2,2559
33.48,2586
33.76,2350
34.04,3637
34.32,2876
34.6,3099
34.88,2702
35.16,2385
35.44,2631
35.72,2319
36,2332
36.28,2314
36.56,2190
36.84,3249
37.12,3195
37.4,2957
37.68,2713
37.96,2235
38.24,2155
38.52,2222
38.8,2251
39.08,3557
39.36,2762
39.64,3607
39.92,2331
40.2,2884
40.48,2524
40.76,3195
41.04,2960
41.32,5385
41.6,2633
41.88,2212
42.16,2008
42.44,2100
42.72,4246
43,3017
43.28,2730
43.56,2194
43.84,2398
44.12,2119
44.4,6187
44.68,6018
44.96,3365
45.24,2159
45.52,2783
45.8,2100
46.08,2096
46.36,2011
46.64,2347
46.92,2276
47.2,2041
47.48,1975
47.76,2658
48.04,2010
48.32,2334
48.6,2295
48.88,4070
49.16,3271
49.44,5285
49.72,3242
50,2738
50.28,2064
50.56,1964
50.84,1961
51.12,2715
51.4,2017
51.68,2144
51.96,2268
52.24,2329
52.52,3541
52.8,2913
53.08,2725
53.36,2003
53.64,1987
53.92,2440
54.2,1957
54.48,2142
54.76,1955
55.04,2213
55.32,2255
55.6,3610
55.88,2543
56.16,2283
56.44,2364
56.72,2091
57,3506
57.28,2176
57.56,2497
57.84,2276
58.12,2082
58.4,2546
58.68,2081
58.96,1922
59.24,1916
59.52,2418
59.8,2431
60.08,3322
60.36,2213
60.64,2122
60.92,2012
61.2,1850
61.48,1814
61.76,2620
62.04,2130
62.32,2286
62.6,2801
62.88,2480
63.16,2478
63.44,2017
63.72,1865
64,2043
64.28,2441
64.56,2252
64.84,1904
65.12,1994
65.4,1855
65.68,2366
65.96,1940
66.24,2313
66.52,2158
66.8,2017
67.08,1837
67.36,2159
67.64,2635
67.92,1927
68.2,2094
68.48,1917
68.76,1959
69.04,2045
69.32,1952
69.6,2021
69.88,1982
70.16,2505
70.44,2199
70.72,2057
71,2163
71.28,2382
71.56,2849
71.84,2555
72.12,2576
72.4,2610
72.68,2097
72.96,1940
73.24,2562
73.52,2127
73.8,1886
74.08,2093
74.36,2280
74.64,3103
74.92,2438
75.2,2664
75.48,1950
75.76,1761
76.04,1787
76.32,1898
76.6,2185
76.88,2013
77.16,1863
77.44,1915
77.72,1958
78,2381
78.28,2076
78.56,2320
78.84,2413
79.12,2162
79.4,2592
79.68,2303
79.96,2414
80.24,2250
80.52,2037
80.8,2152
81.08,2140
81.36,2003
81.64,1976
81.92,1937
82.2,1907
82.48,1959
82.76,2181
83.04,1909
83.32,2162
83.6,2257
83.88,2006
84.16,2202
84.44,2065
84.72,1894
85,2508
85.28,2219
85.56,1982
85.84,2117
86.12,2032
86.4,1950
86.68,1963
86.96,2046
87.24,2090
87.52,2008
87.8,1904
88.08,2037
88.36,2438
88.64,2206
88.92,2206
89.2,2304
89.48,2180
89.76,2589
89.96,2152