File: data/xrd_icdd_PDF/00-061-0054 (PD3).csv
12,1792
12.34,1903
12.68,1927
13.02,1925
13.36,1904
13.7,2069
14.04,4764
14.38,2005
14.72,2001
15.06,2019
15.4,2058
15.74,1992
16.08,2053
16.42,1987
16.76,2135
17.1,2075
17.44,2041
17.78,2099
18.12,2109
18.46,2128
18.8,2024
19.14,2062
19.48,2091
19.82,2246
20.16,2177
20.5,2198
20.84,2090
21.18,2080
21.52,2071
21.86,2047
22.2,2115
22.54,2069
22.88,2072
23.22,2056
23.56,2111
23.9,2118
24.24,2175
24.58,2326
24.92,2027
25.26,2113
25.6,2090
25.94,1951
26.28,2002
26.62,2056
26.96,2064
27.3,1997
27.64,2084
27.98,2099
28.32,2051
28.66,2018
29,2053
29.34,2027
29.68,2094
30.02,2008
30.36,2084
30.7,2199
31.04,2159
31.38,2484
31.72,10550
32.06,2373
32.4,2152
32.74,2189
33.08,2186
33.42,2185
33.76,2198
34.1,2343
34.44,2396
34.78,8649
35.12,2813
35.46,2285
35.8,2200
36.14,2164
36.48,2228
36.82,2139
37.16,2292
37.5,2737
37.84,7036
38.18,2471
38.52,2222
38.86,2170
39.2,2217
39.54,2170
39.88,2245
40.22,2789
40.56,6426
40.9,2387
41.24,2320
41.58,2226
41.92,2247
42.26,2478
42.6,3106
42.94,15408
43.28,4989
43.62,2705
43.96,2394
44.3,2325
44.64,2264
44.98,2383
45.32,2948
45.66,3232
46,2345
46.34,2245
46.68,2240
47.02,2212
47.36,2148
47.7,2215
48.04,2185
48.38,2169
48.72,2198
49.06,2102
49.4,2123
49.74,2151
50.08,3255
50.42,2201
50.76,2160
51.1,2079
51.44,2081
51.78,2123
52.12,2257
52.46,2452
52.8,2099
53.14,2108
53.48,2092
53.82,2100
54.16,2141
54.5,2113
54.84,2101
55.18,2056
55.52,2059
55.86,2105
56.2,2196
56.54,3525
56.88,2206
57.22,2154
57.56,2204
57.9,2173
58.24,2263
58.58,3307
58.92,2232
59.26,2116
59.6,2041
59.94,2192
60.28,2289
60.62,3001
60.96,2195
61.3,2139
61.64,2185
61.98,2193
62.32,2368
62.66,2842
63,2202
63.34,2201
63.68,2197
64.02,2298
64.36,5179
64.7,2468
65.04,2253
65.38,2081
65.72,2113
66.06,2184
66.4,2521
66.74,2174
67.08,2145
67.42,2081
67.76,2173
68.1,2099
68.44,2094
68.78,2153
69.12,2182
69.46,2243
69.8,2903
70.14,4389
70.48,2209
70.82,2154
71.16,2070
71.5,2056
71.84,2141
72.18,2119
72.52,2147
72.86,2180
73.2,2167
73.54,3187
73.88,2213
74.22,2170
74.56,2149
74.9,2121
75.24,2389
75.58,2340
75.92,2092
76.26,2125
76.6,2062
76.94,2146
77.28,2087
77.62,2162
77.96,2156
78.3,2238
78.64,2652
78.98,3576
79.32,2408
79.66,2163
80,2152
80.34,2202
80.68,2127
81.02,2209
81.36,2157
81.7,2094
82.04,2182
82.38,2603
82.72,2162
83.06,2178
83.4,2069
83.74,2095
84.08,2096
84.42,2044
84.76,2096
85.1,2124
85.44,2064
85.78,2901
86.12,2274
86.46,2084
86.8,2157
87.14,2140
87.48,2294
87.82,2116
88.16,2085
88.5,2072
88.84,2170
89.18,2934
89.52,2332
89.86,2079
90.2,2180
90.54,2141
90.88,2738
91.22,2374
91.56,2092
91.9,2093
92.24,2111
92.58,2175
92.92,2117
93.26,2105
93.6,2156
93.94,2145
94.28,3099
94.62,2728
94.96,2069
95.3,2101
95.64,2080
95.98,2364
96.32,2272
96.66,2037
97,2090
97.34,2051
97.68,2322
98.02,2137
98.36,2166
98.7,2135
99.04,2057
99.38,2034
99.72,2007
100.06,2086
100.4,2087
100.74,2053
101.08,2157
101.42,2149
101.76,2100
102.1,2100
102.44,2042
102.78,2083
103.12,2078
103.46,2105
103.8,2046
104.14,2035
104.48,2061
104.82,2294
105.16,2259
105.5,2085
105.84,2087
106.18,2157
106.52,3288
106.86,2617
107.2,2130
107.54,2103
107.88,2104
108.22,2265
108.56,2177
108.9,2160
109.24,2088
109.58,2160
109.92,2322
110.26,2587
110.6,2527
110.94,2167
111.28,2082
111.62,2064
111.96,2094
112.3,2072
112.38,2090