File: data/xrd_icdd_PDF/00-060-0117 (PD3).csv
10,4535
10.32,4025
10.64,3950
10.96,3264
11.28,2679
11.6,2699
11.92,2420
12.24,2563
12.56,2162
12.88,2169
13.2,2080
13.52,2250
13.84,2019
14.16,1747
14.48,2196
14.8,2026
15.12,1931
15.44,2087
15.76,1958
16.08,1863
16.4,2114
16.72,2053
17.04,2067
17.36,1740
17.68,2155
18,2250
18.32,2169
18.64,2189
18.96,2278
19.28,2223
19.6,2264
19.92,2359
20.24,2067
20.56,2114
20.88,2148
21.2,2101
21.52,1958
21.84,2080
22.16,2332
22.48,2386
22.8,2495
23.12,2856
23.44,2162
23.76,2590
24.08,6099
24.4,2577
24.72,2543
25.04,2393
25.36,2454
25.68,2346
26,2543
26.32,2550
26.64,2726
26.96,3971
27.28,9384
27.6,2536
27.92,2794
28.24,2726
28.56,3026
28.88,2733
29.2,3155
29.52,3978
29.84,3604
30.16,2937
30.48,4814
30.8,5242
31.12,3338
31.44,3100
31.76,3094
32.08,3128
32.4,3032
32.72,3209
33.04,3828
33.36,7888
33.68,46627
34,36121
34.32,5528
34.64,5746
34.96,24119
35.28,4005
35.6,3855
35.92,8935
36.24,3678
36.56,3066
36.88,2998
37.2,2842
37.52,3134
37.84,2985
38.16,2903
38.48,3019
38.8,2930
39.12,2849
39.44,2543
39.76,2726
40.08,2393
40.4,3202
40.72,2978
41.04,2611
41.36,3053
41.68,3162
42,3032
42.32,5100
42.64,3590
42.96,7690
43.28,3400
43.6,3202
43.92,3094
44.24,3889
44.56,13613
44.88,4080
45.2,3230
45.52,2849
45.84,2713
46.16,3780
46.48,3372
46.8,3175
47.12,3542
47.44,2903
47.76,3366
48.08,3454
48.4,3583
48.72,2801
49.04,3277
49.36,8636
49.68,5011
50,3542
50.32,2862
50.64,3413
50.96,3413
51.28,3597
51.6,3366
51.92,4188
52.24,12892
52.56,5555
52.88,4134
53.2,3542
53.52,5059
53.84,4311
54.16,3685
54.48,5474
54.8,3835
55.12,5623
55.44,4093
55.76,4012
56.08,6045
56.4,3930
56.72,3454
57.04,3488
57.36,3814
57.68,3461
58,3447
58.32,3209
58.64,3801
58.96,4773
59.28,8010
59.6,4760
59.92,6623
60.24,4828
60.56,6970
60.88,3848
61.2,3502
61.52,3828
61.84,4902
62.16,4202
62.48,3631
62.8,3556
63.12,3651
63.44,3767
63.76,5834
64.08,5140
64.4,6643
64.72,4175
65.04,4182
65.36,5372
65.68,5888
66,4250
66.32,3910
66.64,4562
66.96,11104
67.28,7201
67.6,7248
67.92,6392
68.24,4739
68.56,3814
68.88,3814
69.2,5045
69.52,5297
69.84,3828
70.16,3515
70.48,3726
70.8,4324
71.12,3372
71.44,3434
71.76,3774
72.08,3726
72.4,4141
72.72,4624
73.04,3447
73.36,3549
73.68,4032
74,3556
74.32,4012
74.64,3427
74.96,3760
75.28,3536
75.6,3624
75.92,3692
76.24,4277
76.56,5195
76.88,3719
77.2,4739
77.52,4705
77.84,4562
78.16,4175
78.48,4318
78.8,5045
79.12,4780
79.44,4624
79.76,4243
80.08,5555
80.4,4909
80.72,3774
81.04,3964
81.36,3916
81.68,4719
82,5555
82.32,4304
82.64,3882
82.96,4229
83.28,4127
83.6,3998
83.92,3794
84.24,3549
84.56,3624
84.88,3869
85.2,3576
85.52,3828
85.84,3910
86.16,4386
86.48,4542
86.8,5168
87.12,4685
87.44,4263
87.76,4324
88.08,4352
88.4,4324
88.72,4501
89.04,5161
89.36,4590
89.68,5066
90,6718
90.32,4896
90.64,3964
90.96,4630
91.28,4304
91.6,4440
91.92,4012
92.24,4379
92.56,4515
92.88,4970
93.2,5120
93.52,5120
93.84,5392
94.16,5025
94.48,4617
94.8,5610
95.12,6174
95.44,4807
95.76,4372
96.08,4195
96.4,4345
96.72,4216
97.04,4583
97.36,3848
97.68,3930
98,4148
98.32,4324
98.64,4175
98.96,4576
99.28,4474
99.6,4610
99.92,4780
100,4569