File: data/xrd_icdd_PDF/00-049-1085 (PD3).csv
10,5995
10.34,5940
10.68,5830
11.02,5827
11.36,5865
11.7,7748
12.04,7538
12.38,5634
12.72,5482
13.06,5568
13.4,5523
13.74,5527
14.08,5673
14.42,5510
14.76,5432
15.1,6012
15.44,5504
15.78,5426
16.12,5414
16.46,5346
16.8,5372
17.14,5195
17.48,5405
17.82,5254
18.16,5665
18.5,5289
18.84,5876
19.18,5026
19.52,4924
19.86,5015
20.2,4850
20.54,4978
20.88,4741
21.22,4789
21.56,4778
21.9,8533
22.24,5552
22.58,4754
22.92,4629
23.26,4597
23.6,4537
23.94,4780
24.28,4422
24.62,5130
24.96,4240
25.3,4268
25.64,4211
25.98,4936
26.32,4094
26.66,4157
27,3908
27.34,5221
27.68,4146
28.02,3869
28.36,4061
28.7,4199
29.04,3833
29.38,3845
29.72,3712
30.06,4346
30.4,16358
30.74,4629
31.08,4519
31.42,3834
31.76,12902
32.1,3628
32.44,4924
32.78,3770
33.12,3548
33.46,3639
33.8,3544
34.14,3895
34.48,3698
34.82,3845
35.16,3464
35.5,3533
35.84,3343
36.18,3428
36.52,3332
36.86,3407
37.2,4263
37.54,3918
37.88,3267
38.22,3168
38.56,3317
38.9,3339
39.24,4938
39.58,3301
39.92,4575
40.26,4453
40.6,3796
40.94,4047
41.28,3254
41.62,3280
41.96,3142
42.3,3063
42.64,3024
42.98,3322
43.32,3279
43.66,3168
44,3134
44.34,3031
44.68,4219
45.02,5237
45.36,3050
45.7,2996
46.04,3053
46.38,3060
46.72,2960
47.06,4266
47.4,2870
47.74,3008
48.08,3159
48.42,2912
48.76,4143
49.1,4422
49.44,3226
49.78,3463
50.12,3948
50.46,2952
50.8,2764
51.14,3727
51.48,2765
51.82,3029
52.16,3171
52.5,3009
52.84,3362
53.18,3600
53.52,2671
53.86,2764
54.2,3000
54.54,2658
54.88,3174
55.22,2723
55.56,2819
55.9,4874
56.24,2735
56.58,2801
56.92,3418
57.26,3419
57.6,2736
57.94,3382
58.28,2746
58.62,3094
58.96,3006
59.3,2662
59.64,3292
59.98,2719
60.32,2851
60.66,3144
61,2699
61.34,2707
61.68,2614
62.02,2628
62.36,3406
62.7,3433
63.04,2935
63.38,3260
63.72,2724
64.06,2763
64.4,2676
64.74,3071
65.08,2607
65.42,2632
65.76,2688
66.1,2700
66.44,4249
66.78,2653
67.12,2756
67.46,2584
67.8,2970
68.14,2608
68.48,2684
68.82,2623
69.16,2668
69.5,2693
69.84,2699
70.18,2525
70.52,2736
70.86,2944
71.2,2655
71.54,2700
71.88,3575
72.22,3036
72.56,3066
72.9,3101
73.24,2653
73.58,2629
73.92,3243
74.26,2526
74.6,2596
74.94,3377
75.28,2703
75.62,3024
75.96,2539
76.3,2563
76.64,2483
76.98,2563
77.32,2857
77.66,2586
78,2607
78.34,2713
78.68,3081
79.02,2826
79.36,2768
79.7,2951
80.04,2783
80.38,2896
80.72,2901
81.06,2735
81.4,2726
81.74,2680
82.08,2784
82.42,2632
82.76,2738
83.1,2672
83.44,2740
83.78,2860
84.12,3132
84.46,2787
84.8,2789
85.14,2773
85.48,2754
85.82,3119
86.16,2814
86.5,2672
86.84,2996
87.18,2808
87.52,2805
87.86,2613
88.2,2700
88.54,2860
88.88,2645
89.22,3181
89.56,2907
89.9,2703
90.24,3364
90.58,3072
90.92,2841
91.26,3049
91.6,2651
91.94,2773
92.28,3270
92.62,2712
92.96,2672
93.3,3005
93.64,2631
93.98,2665
94.32,2839
94.66,2963
95,2651
95.34,2615
95.68,2817
96.02,3000
96.36,2756
96.7,2841
97.04,2704
97.38,2832
97.72,2841
98.06,2892
98.4,2915
98.74,2855
99.08,2931
99.42,2748
99.76,2824
100.1,3020
100.44,2760
100.78,2775
101.12,2887
101.46,2758
101.8,2737
102.14,2735
102.48,3058
102.82,2899
103.16,2920
103.5,2747
103.84,2788
104.18,2854
104.52,2758
104.86,2992
105.2,2782
105.54,3062
105.88,2939
106.22,2866
106.56,2867
106.9,2838
107.24,2938
107.58,2745
107.92,2877
108.26,2944
108.6,2878
108.94,3117
109.28,2867
109.62,2898
109.96,3069
109.99,3009