File: data/xrd_icdd_PDF/00-055-0805 (PD3).csv
10,438
10.3,433
10.6,359
10.9,378
11.2,413
11.5,388
11.8,368
12.1,405
12.4,926
12.7,6320
13,532
13.3,454
13.6,1122
13.9,11183
14.2,378
14.5,324
14.8,354
15.1,354
15.4,311
15.7,278
16,342
16.3,304
16.6,335
16.9,311
17.2,326
17.5,676
17.8,335
18.1,1216
18.4,315
18.7,324
19,313
19.3,338
19.6,498
19.9,5014
20.2,322
20.5,304
20.8,308
21.1,452
21.4,795
21.7,2909
22,378
22.3,338
22.6,479
22.9,302
23.2,333
23.5,1492
23.8,368
24.1,538
24.4,3930
24.7,376
25,331
25.3,400
25.6,644
25.9,1287
26.2,608
26.5,1089
26.8,47388
27.1,1369
27.4,30998
27.7,870
28,1122
28.3,12755
28.6,716
28.9,5729
29.2,2842
29.5,512
29.8,555
30.1,7667
30.4,2557
30.7,1640
31,7257
31.3,449
31.6,363
31.9,361
32.2,413
32.5,375
32.8,462
33.1,739
33.4,14671
33.7,21683
34,670
34.3,689
34.6,11759
34.9,867
35.2,512
35.5,5862
35.8,1251
36.1,911
36.4,454
36.7,1406
37,3459
37.3,415
37.6,498
37.9,388
38.2,915
38.5,395
38.8,433
39.1,3775
39.4,1986
39.7,3706
40,449
40.3,863
40.6,709
40.9,1392
41.2,2065
41.5,2093
41.8,1203
42.1,452
42.4,436
42.7,885
43,579
43.3,452
43.6,863
43.9,2494
44.2,7332
44.5,2128
44.8,2133
45.1,736
45.4,622
45.7,1406
46,11091
46.3,653
46.6,594
46.9,3759
47.2,760
47.5,5495
47.8,503
48.1,1283
48.4,1860
48.7,558
49,644
49.3,4926
49.6,1759
49.9,2151
50.2,484
50.5,398
50.8,484
51.1,609
51.4,3415
51.7,535
52,867
52.3,4184
52.6,7236
52.9,2395
53.2,1032
53.5,670
53.8,449
54.1,462
54.4,2310
54.7,2116
55,1650
55.3,2531
55.6,830
55.9,1081
56.2,3452
56.5,2796
56.8,3299
57.1,3898
57.4,2481
57.7,6104
58,1511
58.3,609
58.6,3357
58.9,613
59.2,1314
59.5,1199
59.8,408
60.1,1265
60.4,1036
60.7,2238
61,3466
61.3,1020
61.6,454
61.9,570
62.2,457
62.5,1511
62.8,2717
63.1,4331
63.4,795
63.7,784
64,1032
64.3,2776
64.6,749
64.9,420
65.2,881
65.5,1212
65.8,1374
66.1,462
66.4,716
66.7,492
67,1590
67.3,1482
67.6,650
67.9,679
68.2,484
68.5,1931
68.8,1301
69.1,1028
69.4,561
69.7,2450
70,827
70.3,1186
70.6,2099
70.9,1269
71.2,726
71.5,2019
71.8,1374
72.1,1536
72.4,904
72.7,2274
73,1531
73.3,1942
73.6,827
73.9,784
74.2,1012
74.5,809
74.8,996
75.1,1190
75.4,1032
75.7,2450
76,1256
76.3,495
76.6,418
76.9,529
77.2,1337
77.5,867
77.8,777
78.1,957
78.4,863
78.7,1274
79,1931
79.3,915
79.6,460
79.9,529
80.2,1388
80.5,1064
80.8,791
81.1,689
81.4,561
81.7,512
82,856
82.3,798
82.6,1374
82.9,1305
83.2,576
83.5,1269
83.8,650
84.1,1411
84.4,1392
84.7,616
85,594
85.3,1585
85.6,1411
85.9,969
86.2,1195
86.5,1630
86.8,930
87.1,749
87.4,628
87.7,973
88,896
88.3,830
88.6,934
88.9,777
89.2,837
89.5,774
89.8,613
90.1,904
90.4,1328
90.7,893
91,1360
91.3,1114
91.6,523
91.9,512
92.2,576
92.5,660
92.8,512
93.1,582
93.4,619
93.7,900
94,1374
94.3,1812
94.6,1221
94.9,625
95.2,400
95.5,885
95.8,878
96.1,600
96.4,856
96.7,823
97,791
97.3,977
97.6,1351
97.9,1032
98.2,736
98.5,837
98.8,689
99.1,492
99.4,746
99.7,2856
99.98,1655