File: data/xrd_icdd_PDF/00-057-0441 (PD3).csv
10,7872
10.32,7542
10.64,7129
10.96,6772
11.28,6800
11.6,6674
11.92,6757
12.24,6517
12.56,6290
12.88,6325
13.2,7546
13.52,6329
13.84,6094
14.16,6067
14.48,6371
14.8,6171
15.12,5968
15.44,5977
15.76,6172
16.08,5479
16.4,5795
16.72,5740
17.04,6692
17.36,5222
17.68,5256
18,5059
18.32,5356
18.64,5229
18.96,5089
19.28,4897
19.6,5103
19.92,5186
20.24,4720
20.56,4921
20.88,5162
21.2,5613
21.52,19631
21.84,5756
22.16,5049
22.48,4782
22.8,4953
23.12,5535
23.44,4794
23.76,4540
24.08,4613
24.4,5300
24.72,6069
25.04,4590
25.36,4722
25.68,4384
26,4561
26.32,5467
26.64,10665
26.96,4479
27.28,4353
27.6,4710
27.92,5994
28.24,4467
28.56,4845
28.88,10271
29.2,5397
29.52,4975
29.84,18348
30.16,4853
30.48,4880
30.8,7267
31.12,44817
31.44,5443
31.76,10030
32.08,4414
32.4,4503
32.72,5003
33.04,4352
33.36,4547
33.68,4651
34,5120
34.32,11418
34.64,29700
34.96,6932
35.28,4964
35.6,4431
35.92,4520
36.24,4413
36.56,4289
36.88,4396
37.2,4615
37.52,4193
37.84,4268
38.16,4290
38.48,4253
38.8,4221
39.12,4217
39.44,4822
39.76,15235
40.08,4887
40.4,6116
40.72,4326
41.04,4493
41.36,8880
41.68,5157
42,6777
42.32,4438
42.64,4792
42.96,4476
43.28,4510
43.6,5428
43.92,22253
44.24,11369
44.56,4447
44.88,11357
45.2,4590
45.52,4270
45.84,3644
46.16,4839
46.48,3564
46.8,3522
47.12,3595
47.44,3519
47.76,3505
48.08,4108
48.4,6359
48.72,3634
49.04,3607
49.36,3700
49.68,4127
50,3797
50.32,6691
50.64,3833
50.96,3381
51.28,3556
51.6,4362
51.92,3700
52.24,3573
52.56,3908
52.88,6128
53.2,4144
53.52,12879
53.84,5747
54.16,4435
54.48,5628
54.8,7133
55.12,3559
55.44,4965
55.76,4197
56.08,5139
56.4,3639
56.72,3474
57.04,3440
57.36,3479
57.68,5917
58,5457
58.32,5251
58.64,3649
58.96,3513
59.28,3639
59.6,7918
59.92,4236
60.24,3825
60.56,4205
60.88,4766
61.2,3440
61.52,3515
61.84,3891
62.16,3320
62.48,3366
62.8,3534
63.12,3323
63.44,3461
63.76,3655
64.08,3891
64.4,4280
64.72,13732
65.04,4887
65.36,3711
65.68,3588
66,4153
66.32,4629
66.64,3860
66.96,3864
67.28,3675
67.6,4700
67.92,3906
68.24,5297
68.56,6154
68.88,3826
69.2,3609
69.52,4596
69.84,3694
70.16,3784
70.48,4008
70.8,5941
71.12,3831
71.44,3651
71.76,4030
72.08,3899
72.4,4272
72.72,7612
73.04,6621
73.36,6919
73.68,4491
74,4743
74.32,4792
74.64,3728
74.96,3598
75.28,3699
75.6,3801
75.92,4659
76.24,5368
76.56,4176
76.88,4304
77.2,4513
77.52,5045
77.84,6517
78.16,5067
78.48,3915
78.8,5091
79.12,4615
79.44,3809
79.76,3639
80.08,3573
80.4,3825
80.72,4074
81.04,3755
81.36,3626
81.68,3816
82,3826
82.32,5363
82.64,5332
82.96,3716
83.28,3881
83.6,4841
83.92,4260
84.24,3576
84.56,4476
84.88,4678
85.2,4950
85.52,5035
85.84,5346
86.16,4428
86.48,4299
86.8,3813
87.12,4127
87.44,3806
87.76,4265
88.08,4272
88.4,4005
88.72,3886
89.04,3799
89.36,4921
89.68,5601
90,5373
90.32,4748
90.64,4782
90.96,4884
91.28,5149
91.6,4627
91.92,4499
92.24,4477
92.56,5511
92.88,5659
93.2,5271
93.52,4826
93.84,4503
94.16,4709
94.48,4999
94.8,4642
95.12,4603
95.44,5202
95.76,5681
96.08,4962
96.4,4892
96.72,4800
97.04,5645
97.36,5370
97.68,4845
98,4880
98.32,5219
98.64,4812
98.96,4926
99.28,4743
99.6,4964
99.92,5040
100,4969