File: data/xrd_icdd_PDF/00-067-0138 (PD3).csv
9.65786,213.28
10.10786,216.426
10.55786,203.061
11.00786,203.29
11.45786,208.111
11.90786,195.298
12.35786,189.142
12.80786,193.7836
13.25786,198.676
13.70786,191.919
14.15786,193.963
14.60786,187.253
15.05786,188.582
15.50786,189.354
15.95786,185.57
16.40786,189.689
16.85786,191.098
17.30786,192.433
17.75786,187.54
18.20786,196.013
18.65786,296.36
19.10786,207.027
19.55786,181.364
20.00786,178.311
20.45786,176.232
20.90786,175.457
21.35786,181.489
21.80786,184.138
22.25786,180.6793
22.70786,178.524
23.15786,174.422
23.60786,174.8653
24.05786,176.093
24.50786,175.815
24.95786,170.723
25.40786,168.962
25.85786,166.85
26.30786,172.364
26.75786,168.843
27.20786,170.079
27.65786,173.711
28.10786,215.6629
28.55786,682.4469
29.00786,918.564
29.45786,245.869
29.90786,167.869
30.35786,164.945
30.80786,165.601
31.25786,174.48
31.70786,181.799
32.15786,162.503
32.60786,154.789
33.05786,160.949
33.50786,166.709
33.95786,198.029
34.40786,260.049
34.85786,159.79
35.30786,157.256
35.75786,155.175
36.20786,157.155
36.65786,160.6771
37.10786,164.053
37.55786,249.258
38.00786,362.945
38.45786,186.216
38.90786,357.895
39.35786,1552.62
39.80786,884.324
40.25786,827.195
40.70786,184.105
41.15786,156.058
41.60786,155.871
42.05786,159.298
42.50786,161.102
42.95786,160.655
43.40786,397.141
43.85786,171.859
44.30786,154.963
44.75786,163.113
45.20786,278.6
45.65786,926.705
46.10786,184.361
46.55786,176.204
47.00786,745.973
47.45786,761.466
47.90786,171.1208
48.35786,150.266
48.80786,185.5803
49.25786,816.859
49.70786,167.198
50.15786,136.159
50.60786,135.789
51.05786,130.976
51.50786,129.959
51.95786,143.627
52.40786,127.633
52.85786,158.956
53.30786,157.364
53.75786,138.189
54.20786,191.185
54.65786,288.152
55.10786,134.761
55.55786,136.342
56.00786,143.7404
56.45786,525.404
56.90786,152.379
57.35786,143.041
57.80786,439.321
58.25786,508.498
58.70786,150.813
59.15786,135.387
59.60786,357.107
60.05786,143.67
60.50786,133.024
60.95786,132.856
61.40786,134.229
61.85786,131.687
62.30786,127.884
62.75786,134.763
63.20786,131.315
63.65786,132.114
64.10786,149.611
64.55786,620.643
65.00786,276.572
65.45786,190.005
65.90786,129.839
66.35786,126.952
66.80786,133.78
67.25786,141.774
67.70786,552.313
68.15786,144.349
68.60786,132.573
69.05786,254.463
69.50786,354.029
69.95786,142.198
70.40786,168.255
70.85786,295.836
71.30786,698.4
71.75786,153.749
72.20786,321.187
72.65786,128.372
73.10786,121.41
73.55786,127.901
74.00786,166.164
74.45786,795.173
74.90786,161.68
75.35786,373.223
75.80786,169.008
76.25786,1044.32
76.70786,430.7437
77.15786,148.168
77.60786,149.632
78.05786,803.975
78.50786,153.685
78.95786,134.9106
79.40786,538.655
79.85786,207.486
80.30786,136.251
80.75786,388.412
81.20786,165.863
81.65786,129.372
82.10786,217.718
82.55786,250.638
83.00786,121.405
83.45786,117.846
83.90786,128.296
84.35786,626.197
84.80786,148.551
85.25786,123.287
85.70786,145.119
86.15786,133.487
86.60786,141.515
87.05786,120.042
87.50786,130.766
87.95786,569.347
88.40786,145.755
88.85786,119.239
89.30786,119.104
89.75786,119.415
90.20786,144.318
90.65786,475.091
91.10786,262.512
91.55786,178.302
92.00786,124.311
92.45786,120.484
92.90786,112.201
93.35786,114.522
93.80786,112.208
94.25786,114.89
94.70786,125.198
95.15786,251.594
95.60786,181.006
96.05786,123.944
96.50786,193.9099
96.95786,121.04
97.40786,121.448
97.85786,253.791
98.30786,122.6491
98.75786,136.319
99.20786,404.757
99.65786,510.64
100.108,145.259
100.558,133.866
101.008,214.272
101.458,132.166
101.908,119.864
102.358,118.246
102.808,118.753
103.258,115.288
103.708,118.284
104.158,125.392
104.608,124.072
105.058,146.802
105.508,428.3
105.958,160.057
106.408,249.783
106.858,132.745
107.308,131.212
107.758,169.284
108.208,770.42
108.658,177.969
109.108,487.53
109.558,445.407
110.008,208.954
110.458,154.9814
110.908,598.018
111.358,141.074
111.808,171.439
112.258,124.229
112.708,186.63
113.158,125.336
113.608,122.103
114.058,122.006
114.508,149.574
114.958,134.056
115.408,122.074
115.858,124.414
116.308,132.788
116.758,192.6767
117.208,1896.04
117.658,239.466
118.108,148.823
118.558,152.414
119.008,387.749
119.458,142.623
119.908,141.451
120.358,243.226
120.808,261.417
121.258,135.668
121.708,154.207
122.158,783.302
122.608,260.825
123.058,135.316
123.508,127.961
123.958,190.861
124.408,126.038
124.858,124.309
125.308,122.782
125.758,130.326
126.208,178.243
126.658,695.601
127.108,168.762
127.558,237.986
128.008,651.245
128.458,464.936
128.908,149.36
129.358,137.339
129.808,133.489
130.258,129.997
130.508,133.602