File: data/xrd_icdd_PDF/00-061-0052 (PD3).csv
15,2789
15.32,2765
15.64,2799
15.96,2797
16.28,2746
16.6,2718
16.92,2746
17.24,2771
17.56,2918
17.88,2776
18.2,2797
18.52,2734
18.84,2842
19.16,2889
19.48,2824
19.8,2734
20.12,2781
20.44,2761
20.76,2705
21.08,2709
21.4,2656
21.72,2687
22.04,3555
22.36,2695
22.68,2709
23,2967
23.32,3742
23.64,2756
23.96,2626
24.28,2672
24.6,2749
24.92,2761
25.24,2656
25.56,2721
25.88,2739
26.2,2691
26.52,2781
26.84,5947
27.16,2846
27.48,2765
27.8,2718
28.12,2825
28.44,2753
28.76,2705
29.08,2665
29.4,2702
29.72,2871
30.04,2747
30.36,2618
30.68,2768
31,2779
31.32,2761
31.64,2761
31.96,2889
32.28,3903
32.6,2788
32.92,2805
33.24,2878
33.56,2933
33.88,2936
34.2,4035
34.52,3421
34.84,3210
35.16,3223
35.48,5626
35.8,22588
36.12,3770
36.44,3365
36.76,4951
37.08,11321
37.4,3650
37.72,3469
38.04,10205
38.36,3946
38.68,3196
39,3066
39.32,3093
39.64,3014
39.96,3058
40.28,3203
40.6,2956
40.92,3036
41.24,2935
41.56,3120
41.88,3063
42.2,3167
42.52,3020
42.84,2988
43.16,3147
43.48,3546
43.8,7506
44.12,6510
44.44,3935
44.76,5838
45.08,4156
45.4,3120
45.72,3074
46.04,3033
46.36,2925
46.68,3011
47,3190
47.32,3893
47.64,3354
47.96,3030
48.28,3067
48.6,3049
48.92,3041
49.24,2997
49.56,3109
49.88,3023
50.2,3066
50.52,3106
50.84,2956
51.16,2941
51.48,3052
51.8,3121
52.12,3525
52.44,3081
52.76,2988
53.08,3067
53.4,3082
53.72,3062
54.04,3194
54.36,4251
54.68,3176
55,3662
55.32,4507
55.64,3412
55.96,3206
56.28,3116
56.6,3061
56.92,3183
57.24,3137
57.56,3631
57.88,3513
58.2,3126
58.52,3119
58.84,3229
59.16,3607
59.48,5141
59.8,3407
60.12,3215
60.44,3250
60.76,4246
61.08,3294
61.4,3365
61.72,4279
62.04,3395
62.36,3276
62.68,3193
63,3070
63.32,3162
63.64,3258
63.96,3424
64.28,5073
64.6,4116
64.92,3421
65.24,3254
65.56,3281
65.88,3263
66.2,3336
66.52,5097
66.84,3648
67.16,3313
67.48,3172
67.8,3256
68.12,3363
68.44,3455
68.76,5079
69.08,3828
69.4,3232
69.72,3305
70.04,3276
70.36,3295
70.68,3257
71,3233
71.32,3160
71.64,3214
71.96,3220
72.28,3345
72.6,3361
72.92,4066
73.24,3899
73.56,3388
73.88,3344
74.2,3447
74.52,3473
74.84,3458
75.16,4166
75.48,4165
75.8,4055
76.12,3959
76.44,3413
76.76,3364
77.08,3373
77.4,3255
77.72,3380
78.04,3347
78.36,3465
78.68,4228
79,3670
79.32,3370
79.64,3385
79.96,3247
80.28,3382
80.6,3476
80.92,3848
81.24,4578
81.56,4001
81.88,3986
82.2,3582
82.52,3423
82.84,3396
83.16,3431
83.48,3288
83.8,3383
84.12,3360
84.44,3314
84.76,3284
85.08,3395
85.4,3291
85.72,3310
86.04,3355
86.36,3412
86.68,3461
87,3221
87.32,3366
87.64,3387
87.96,3482
88.28,3624
88.6,3494
88.92,3485
89.24,3505
89.56,3458
89.88,3393
90.2,3369
90.52,3316
90.84,3372
91.16,3484
91.48,3464
91.8,3497
92.12,3431
92.44,3588
92.76,3547
93.08,3547
93.4,3439
93.72,3743
94.04,3787
94.36,3772
94.68,3447
95,3487
95.32,3411
95.64,3472
95.96,3524
96.28,3505
96.6,3624
96.92,3704
97.24,3971
97.56,4003
97.88,4180
98.2,3929
98.52,3603
98.84,3797
99.16,3920
99.48,3730
99.8,3481
100.12,3588
100.44,3587
100.76,3751
101.08,3859
101.4,3809
101.72,3688
102.04,3492
102.36,3464
102.68,3536
103,3573
103.32,3550
103.64,3537
103.96,3604
104.28,3912
104.6,3994
104.92,3807
105.24,3729
105.56,3622
105.88,3481
106.2,3484
106.52,3520
106.84,3459