File: data/xrd_icdd_PDF/00-050-0218 (PD3).csv
8,6969
8.34,6867
8.68,6957
9.02,6929
9.36,6596
9.7,6561
10.04,6314
10.38,6262
10.72,6241
11.06,6213
11.4,7351
11.74,26708
12.08,6041
12.42,5866
12.76,5873
13.1,5843
13.44,5683
13.78,5509
14.12,5547
14.46,5719
14.8,6145
15.14,5572
15.48,5394
15.82,5424
16.16,5262
16.5,5333
16.84,5245
17.18,5296
17.52,8847
17.86,5296
18.2,5032
18.54,4773
18.88,4831
19.22,4789
19.56,4721
19.9,4697
20.24,4622
20.58,4558
20.92,5107
21.26,12628
21.6,4732
21.94,4410
22.28,4373
22.62,4301
22.96,4281
23.3,4355
23.64,4601
23.98,4113
24.32,4161
24.66,4171
25,3987
25.34,4594
25.68,4067
26.02,4069
26.36,4991
26.7,4090
27.04,3875
27.38,3809
27.72,3847
28.06,4842
28.4,3783
28.74,3727
29.08,3735
29.42,13805
29.76,10431
30.1,9887
30.44,3778
30.78,3633
31.12,24053
31.46,3680
31.8,3353
32.14,3297
32.48,4791
32.82,3226
33.16,3714
33.5,4314
33.84,4003
34.18,3088
34.52,3041
34.86,3067
35.2,2958
35.54,3063
35.88,3115
36.22,3105
36.56,3779
36.9,4421
37.24,3206
37.58,3691
37.92,2823
38.26,4089
38.6,3151
38.94,3323
39.28,2942
39.62,3503
39.96,11120
40.3,2918
40.64,4090
40.98,2813
41.32,5799
41.66,4873
42,2668
42.34,2638
42.68,3548
43.02,5448
43.36,2772
43.7,3278
44.04,2569
44.38,2617
44.72,2524
45.06,2666
45.4,2426
45.74,2843
46.08,2941
46.42,2653
46.76,2519
47.1,3072
47.44,2856
47.78,3934
48.12,2614
48.46,3589
48.8,2702
49.14,2383
49.48,2468
49.82,3600
50.16,2826
50.5,2305
50.84,2539
51.18,2444
51.52,3436
51.86,2703
52.2,2566
52.54,2431
52.88,2538
53.22,3908
53.56,2364
53.9,2573
54.24,6290
54.58,3781
54.92,3530
55.26,2412
55.6,2601
55.94,3032
56.28,2262
56.62,2319
56.96,2267
57.3,2440
57.64,2966
57.98,2436
58.32,3191
58.66,2175
59,2872
59.34,2222
59.68,2556
60.02,2671
60.36,3355
60.7,2232
61.04,3312
61.38,2983
61.72,2899
62.06,2625
62.4,2526
62.74,2703
63.08,2271
63.42,2420
63.76,2287
64.1,2260
64.44,2395
64.78,2412
65.12,2441
65.46,2082
65.8,2580
66.14,2114
66.48,2288
66.82,2063
67.16,2509
67.5,2300
67.84,2249
68.18,2122
68.52,2683
68.86,2242
69.2,2144
69.54,2406
69.88,3259
70.22,3759
70.56,2498
70.9,3032
71.24,2602
71.58,2248
71.92,2276
72.26,2381
72.6,2044
72.94,2118
73.28,2095
73.62,2026
73.96,1994
74.3,2081
74.64,2320
74.98,2191
75.32,2813
75.66,2123
76,2493
76.34,2506
76.68,2625
77.02,2180
77.36,2223
77.7,2118
78.04,2017
78.38,2857
78.72,2188
79.06,2243
79.4,2059
79.74,2305
80.08,2539
80.42,2129
80.76,2095
81.1,2290
81.44,2092
81.78,1939
82.12,2020
82.46,2191
82.8,2241
83.14,2319
83.48,2042
83.82,2508
84.16,1901
84.5,2037
84.84,2144
85.18,2216
85.52,2324
85.86,2146
86.2,2641
86.54,2176
86.88,2928
87.22,2076
87.56,2055
87.9,1982
88.24,1898
88.58,2099
88.92,2170
89.26,2000
89.6,2033
89.94,2067
90.28,2003
90.62,2166
90.96,2170
91.3,1915
91.64,1932
91.98,2026
92.32,1868
92.66,2089
93,2037
93.34,1902
93.68,2079
94.02,2555
94.36,2157
94.7,1996
95.04,2184
95.38,1958
95.72,2050
96.06,2037
96.4,2020
96.74,2352
97.08,1973
97.42,1990
97.76,2091
98.1,2261
98.44,1971
98.78,1811
99.12,1989
99.46,2072
99.8,2140
100.14,2185
100.48,2041
100.82,2005
101.16,1952
101.5,2054
101.84,2158
102.18,2049
102.52,1905
102.86,2210
103.2,2205
103.54,2056
103.88,2071
104.22,2217
104.56,1993
104.9,2004
105.24,2065
105.58,2244
105.92,1973
106.26,2032
106.6,2064
106.94,2134
107.28,1987
107.62,2057
107.96,2036
108.3,2145
108.64,2054
108.98,2163
109.32,2111
109.66,2093
109.98,2224