File: data/xrd_icdd_PDF/00-067-0216 (PD3).csv
5.0167,4629
5.4127,4121
5.8087,3810
6.2047,3615
6.6007,3498
6.9967,3199
7.3927,3054
7.7887,2904
8.1847,2693
8.5807,2616
8.9767,2605
9.3727,2529
9.7687,2414
10.1647,2385
10.5607,2310
10.9567,2247
11.3527,2230
11.7487,2215
12.1447,2072
12.5407,2136
12.9367,1993
13.3327,2016
13.7287,1993
14.1247,1944
14.5207,1924
14.9167,1955
15.3127,1833
15.7087,1859
16.1047,1841
16.5007,1773
16.8967,1820
17.2927,1761
17.6887,1799
18.0847,1742
18.4807,1797
18.8767,1856
19.2727,3265
19.6687,1761
20.0647,1743
20.4607,1683
20.8567,1698
21.2527,1700
21.6487,1732
22.0447,1680
22.4407,1667
22.8367,1749
23.2327,1718
23.6287,1702
24.0247,1718
24.4207,1758
24.8167,1716
25.2127,1761
25.6087,1655
26.0047,1796
26.4007,1705
26.7967,1678
27.1927,1754
27.5887,1750
27.9847,1824
28.3807,1912
28.7767,2028
29.1727,3067
29.5687,9297
29.9647,2382
30.3607,1860
30.7567,1846
31.1527,3228
31.5487,1935
31.9447,1851
32.3407,1984
32.7367,1756
33.1327,2176
33.5287,1876
33.9247,1806
34.3207,1783
34.7167,1812
35.1127,1841
35.5087,4453
35.9047,1835
36.3007,1908
36.6967,1861
37.0927,1909
37.4887,1840
37.8847,1936
38.2807,1912
38.6767,1953
39.0727,1962
39.4687,1924
39.8647,1932
40.2607,2195
40.6567,3687
41.0527,2083
41.4487,1993
41.8447,1983
42.2407,2007
42.6367,1985
43.0327,2083
43.4287,2869
43.8247,2099
44.2207,2070
44.6167,2131
45.0127,2041
45.4087,2108
45.8047,2135
46.2007,2175
46.5967,2733
46.9927,2247
47.3887,2278
47.7847,2667
48.1807,3455
48.5767,2185
48.9727,2227
49.3687,2217
49.7647,2200
50.1607,2189
50.5567,2173
50.9527,2645
51.3487,2511
51.7447,2219
52.1407,2365
52.5367,2408
52.9327,2295
53.3287,2368
53.7247,2470
54.1207,2504
54.5167,5588
54.9127,2590
55.3087,2518
55.7047,2382
56.1007,2323
56.4967,2371
56.8927,2260
57.2887,2675
57.6847,2306
58.0807,2389
58.4767,2353
58.8727,2440
59.2687,2758
59.6647,2780
60.0607,6667
60.4567,2822
60.8527,2681
61.2487,3594
61.6447,2547
62.0407,2403
62.4367,2431
62.8327,2425
63.2287,2461
63.6247,2455
64.0207,2456
64.4167,2455
64.8127,2487
65.2087,2612
65.6047,2596
66.0007,2444
66.3967,2538
66.7927,2570
67.1887,2642
67.5847,2588
67.9807,2586
68.3767,2593
68.7727,2621
69.1687,2703
69.5647,2566
69.9607,2519
70.3567,2519
70.7527,2574
71.1487,2766
71.5447,2735
71.9407,2684
72.3367,2690
72.7327,2653
73.1287,2770
73.5247,2642
73.9207,2672
74.3167,2728
74.7127,2619
75.1087,2980
75.5047,2785
75.9007,2714
76.2967,3259
76.6927,2939
77.0887,2799
77.4847,2791
77.8807,4291
78.2767,2931
78.6727,2888
79.0687,2763
79.4647,2742
79.8607,2732
80.2567,3084
80.6527,2835
81.0487,2848
81.4447,2745
81.8407,2796
82.2367,2825
82.6327,3429
83.0287,3039
83.4247,3056
83.8207,3199
84.2167,2846
84.6127,2818
85.0087,2918
85.4047,2936
85.8007,3120
86.1967,3346
86.5927,2921
86.9887,3022
87.3847,3150
87.7807,2932
88.1767,2946
88.5727,2821
88.9687,2905
89.3647,2925
89.7607,3266
90.1567,3083
90.5527,2931
90.9487,3174
91.3447,2906
91.7407,2977
92.1367,2963
92.5327,2996
92.9287,3016
93.3247,2939
93.7207,2999
94.1167,3380
94.5127,3354
94.9087,3001
95.3047,2911
95.7007,2958
96.0967,2990
96.4927,2993
96.8887,3036
97.2847,2922
97.6807,2986
98.0767,3123
98.4727,3086
98.8687,3119
99.2647,3362
99.6607,3140
100.0567,3181
100.4527,3032
100.8487,2998
101.2447,2993
101.6407,3050
102.0367,3141
102.4327,3041
102.8287,3107
103.2247,3053
103.6207,3220
104.0167,3606
104.4127,3723
104.8087,3261
105.2047,3075
105.6007,3158
105.9967,3119
106.3927,3142
106.7887,3123
107.1847,3237
107.5807,3307
107.9767,3180
108.3727,3176
108.7687,3412
109.1647,3404
109.5607,3277
109.9567,3212
110.3527,3288
110.7487,3232
111.1447,3437
111.5407,3619
111.9367,3609
112.3327,3215
112.7287,3334
113.1247,3315
113.5207,3212
113.9167,3267
114.3127,3276
114.7087,3293
115.1047,3229
115.5007,3331
115.8967,3284
116.2927,3210
116.6887,3285
117.0847,3274
117.4807,3246
117.8767,3363
118.2727,3288
118.6687,3298
119.0647,3513
119.4607,3560
119.8567,3405
119.9887,3478