File: data/xrd_icdd_PDF/00-072-0145 (PD3).csv
10,1208
10.44,1167
10.88,1162
11.32,1119
11.76,1195
12.2,1146
12.64,1169
13.08,1403
13.52,1091
13.96,1104
14.4,1013
14.84,1034
15.28,1012
15.72,1013
16.16,1069
16.6,1016
17.04,984
17.48,991
17.92,956
18.36,962
18.8,907
19.24,889
19.68,906
20.12,921
20.56,790
21,853
21.44,839
21.88,800
22.32,845
22.76,816
23.2,758
23.64,733
24.08,758
24.52,723
24.96,751
25.4,670
25.84,730
26.28,1424
26.72,751
27.16,646
27.6,647
28.04,693
28.48,834
28.92,1603
29.36,5637
29.8,913
30.24,735
30.68,1240
31.12,691
31.56,539
32,519
32.44,567
32.88,763
33.32,2977
33.76,1079
34.2,507
34.64,494
35.08,433
35.52,383
35.96,353
36.4,361
36.84,372
37.28,344
37.72,322
38.16,378
38.6,402
39.04,428
39.48,956
39.92,904
40.36,542
40.8,960
41.24,455
41.68,379
42.12,365
42.56,350
43,380
43.44,543
43.88,2585
44.32,496
44.76,346
45.2,337
45.64,318
46.08,313
46.52,292
46.96,312
47.4,296
47.84,326
48.28,293
48.72,298
49.16,319
49.6,316
50.04,375
50.48,452
50.92,1490
51.36,772
51.8,581
52.24,388
52.68,364
53.12,560
53.56,1472
54,1484
54.44,424
54.88,343
55.32,287
55.76,228
56.2,260
56.64,248
57.08,253
57.52,246
57.96,240
58.4,240
58.84,247
59.28,227
59.72,266
60.16,353
60.6,705
61.04,425
61.48,328
61.92,252
62.36,251
62.8,276
63.24,406
63.68,614
64.12,436
64.56,276
65,263
65.44,253
65.88,294
66.32,242
66.76,236
67.2,225
67.64,235
68.08,219
68.52,216
68.96,263
69.4,234
69.84,248
70.28,286
70.72,244
71.16,352
71.6,585
72.04,883
72.48,501
72.92,332
73.36,308
73.8,409
74.24,465
74.68,261
75.12,235
75.56,246
76,225
76.44,244
76.88,219
77.32,266
77.76,349
78.2,316
78.64,323
79.08,232
79.52,212
79.96,177
80.4,216
80.84,260
81.28,471
81.72,278
82.16,243
82.6,264
83.04,234
83.48,209
83.92,237
84.36,212
84.8,237
85.24,294
85.68,426
86.12,502
86.56,296
87,269
87.44,272
87.88,440
88.32,519
88.76,350
89.2,262
89.64,225
90.08,195
90.52,189
90.96,192
91.4,191
91.84,201
92.28,208
92.72,211
93.16,212
93.6,278
94.04,293
94.48,229
94.92,242
95.36,198
95.8,205
96.24,290
96.68,363
97.12,375
97.56,365
98,273
98.44,251
98.88,218
99.32,195
99.76,220
100.2,204
100.64,210
101.08,227
101.52,234
101.96,206
102.4,230
102.84,243
103.28,211
103.72,241
104.16,295
104.6,261
105.04,250
105.48,224
105.92,224
106.36,196
106.8,212
107.24,197
107.68,206
108.12,209
108.56,204
109,224
109.44,246
109.88,232
110.32,309
110.76,285
111.2,252
111.64,200
112.08,225
112.52,257
112.96,297
113.4,423
113.84,435
114.28,350
114.72,254
115.16,270
115.6,243
116.04,251
116.48,219
116.92,212
117.36,198
117.8,206
118.24,263
118.68,255
119.12,281
119.56,276
120,254
120.44,232
120.88,247
121.32,268
121.76,290
122.2,271
122.64,305
123.08,246
123.52,231
123.96,245
124.4,217
124.84,204
125.28,216
125.72,233
126.16,207
126.6,239
127.04,215
127.48,221
127.92,222
128.36,245
128.8,254
129.24,267
129.68,247
130.12,220
130.56,273
131,265
131.44,298
131.88,276
132.32,295
132.76,288
133.2,327
133.64,323
134.08,323
134.52,287
134.96,292
135.4,303
135.84,255
136.28,258
136.72,243
137.16,253
137.6,260
138.04,237
138.48,282
138.92,281
139.36,292
139.8,272
140,268