File: data/xrd_icdd_PDF/00-069-0772 (PD3).csv
5,72
5.4,54
5.8,73
6.2,67
6.6,69
7,59
7.4,60
7.8,66
8.2,70
8.6,70
9,58
9.4,64
9.8,59
10.2,76
10.6,65
11,70
11.4,60
11.8,69
12.2,85
12.6,69
13,74
13.4,71
13.8,64
14.2,75
14.6,64
15,67
15.4,59
15.8,53
16.2,71
16.6,57
17,56
17.4,56
17.8,62
18.2,70
18.6,56
19,55
19.4,59
19.8,55
20.2,54
20.6,73
21,53
21.4,70
21.8,64
22.2,52
22.6,68
23,71
23.4,72
23.8,60
24.2,70
24.6,94
25,2016
25.4,108
25.8,72
26.2,61
26.6,70
27,58
27.4,73
27.8,52
28.2,61
28.6,67
29,56
29.4,54
29.8,63
30.2,65
30.6,138
31,2326
31.4,123
31.8,67
32.2,65
32.6,52
33,81
33.4,427
33.8,113
34.2,60
34.6,63
35,60
35.4,81
35.8,153
36.2,67
36.6,65
37,101
37.4,157
37.8,2926
38.2,1727
38.6,140
39,83
39.4,79
39.8,72
40.2,70
40.6,63
41,55
41.4,72
41.8,205
42.2,805
42.6,93
43,68
43.4,71
43.8,123
44.2,1134
44.6,164
45,88
45.4,59
45.8,71
46.2,74
46.6,60
47,60
47.4,76
47.8,260
48.2,141
48.6,69
49,60
49.4,57
49.8,68
50.2,64
50.6,57
51,69
51.4,55
51.8,65
52.2,74
52.6,67
53,187
53.4,68
53.8,68
54.2,71
54.6,62
55,53
55.4,71
55.8,58
56.2,70
56.6,107
57,58
57.4,74
57.8,58
58.2,60
58.6,146
59,73
59.4,145
59.8,228
60.2,208
60.6,77
61,89
61.4,94
61.8,55
62.2,63
62.6,60
63,229
63.4,95
63.8,63
64.2,102
64.6,271
65,77
65.4,151
65.8,226
66.2,64
66.6,64
67,58
67.4,61
67.8,68
68.2,117
68.6,675
69,89
69.4,64
69.8,152
70.2,193
70.6,68
71,57
71.4,55
71.8,151
72.2,67
72.6,85
73,146
73.4,61
73.8,98
74.2,62
74.6,72
75,62
75.4,86
75.8,60
76.2,53
76.6,73
77,219
77.4,60
77.8,71
78.2,111
78.6,60
79,64
79.4,59
79.8,69
80.2,68
80.6,60
81,133
81.4,93
81.8,74
82.2,100
82.6,131
83,88
83.4,68
83.8,212
84.2,62
84.6,59
85,157
85.4,218
85.8,112
86.2,69
86.6,74
87,57
87.4,76
87.8,139
88.2,73
88.6,56
89,58
89.4,70
89.8,75
90.2,72
90.6,100
91,59
91.4,68
91.8,81
92.2,80
92.6,63
93,73
93.4,105
93.8,144
94.2,98
94.6,89
95,68
95.4,75
95.8,100
96.2,80
96.6,57
97,70
97.4,60
97.8,70
98.2,71
98.6,74
99,61
99.4,64
99.8,98
100.2,91
100.6,99
101,69
101.4,82
101.8,72
102.2,73
102.6,124
103,73
103.4,72
103.8,113
104.2,70
104.6,144
105,69
105.4,142
105.8,85
106.2,57
106.6,89
107,72
107.4,111
107.8,71
108.2,62
108.6,56
109,60
109.4,64
109.8,157
110.2,68
110.6,65
111,65
111.4,55
111.8,87
112.2,55
112.6,81
113,72
113.4,66
113.8,125
114.2,321
114.6,110
115,67
115.4,61
115.8,53
116.2,66
116.6,82
117,73
117.4,60
117.8,72
118.2,74
118.6,72
119,60
119.4,70
119.8,101
120,89