File: data/xrd_icdd_PDF/00-064-0428 (PD3).csv
10,982
10.32,923
10.64,1027
10.96,1018
11.28,909
11.6,893
11.92,904
12.24,883
12.56,856
12.88,827
13.2,790
13.52,749
13.84,760
14.16,758
14.48,717
14.8,643
15.12,602
15.44,621
15.76,584
16.08,595
16.4,496
16.72,514
17.04,462
17.36,438
17.68,451
18,333
18.32,366
18.64,386
18.96,318
19.28,325
19.6,328
19.92,323
20.24,304
20.56,341
20.88,330
21.2,338
21.52,291
21.84,245
22.16,234
22.48,310
22.8,355
23.12,331
23.44,1088
23.76,10597
24.08,1650
24.4,400
24.72,301
25.04,274
25.36,237
25.68,264
26,272
26.32,293
26.64,1658
26.96,336
27.28,248
27.6,280
27.92,229
28.24,272
28.56,250
28.88,266
29.2,291
29.52,274
29.84,245
30.16,270
30.48,240
30.8,264
31.12,246
31.44,264
31.76,286
32.08,285
32.4,398
32.72,4963
33.04,1691
33.36,675
33.68,2507
34,48456
34.32,2147
34.64,1099
34.96,13254
35.28,483
35.6,299
35.92,227
36.24,211
36.56,214
36.88,264
37.2,267
37.52,237
37.84,248
38.16,240
38.48,358
38.8,674
39.12,419
39.44,490
39.76,234
40.08,286
40.4,1754
40.72,1158
41.04,4936
41.36,296
41.68,245
42,163
42.32,298
42.64,1381
42.96,806
43.28,258
43.6,462
43.92,1242
44.24,326
44.56,413
44.88,768
45.2,269
45.52,235
45.84,274
46.16,355
46.48,218
46.8,171
47.12,198
47.44,205
47.76,272
48.08,442
48.4,6762
48.72,1893
49.04,10008
49.36,512
49.68,1312
50,864
50.32,446
50.64,926
50.96,235
51.28,246
51.6,222
51.92,221
52.24,251
52.56,251
52.88,350
53.2,1405
53.52,2130
53.84,1000
54.16,443
54.48,541
54.8,3618
55.12,8818
55.44,1234
55.76,384
56.08,1160
56.4,1248
56.72,307
57.04,261
57.36,280
57.68,352
58,349
58.32,333
58.64,325
58.96,834
59.28,5171
59.6,3816
59.92,755
60.24,7982
60.56,867
60.88,402
61.2,614
61.52,7261
61.84,8203
62.16,6222
62.48,1182
62.8,413
63.12,323
63.44,246
63.76,291
64.08,301
64.4,282
64.72,267
65.04,275
65.36,293
65.68,264
66,389
66.32,696
66.64,510
66.96,293
67.28,245
67.6,259
67.92,310
68.24,250
68.56,386
68.88,1224
69.2,390
69.52,248
69.84,312
70.16,531
70.48,389
70.8,296
71.12,590
71.44,1853
71.76,2006
72.08,587
72.4,280
72.72,243
73.04,256
73.36,302
73.68,1130
74,1395
74.32,1139
74.64,293
74.96,418
75.28,1856
75.6,1507
75.92,910
76.24,462
76.56,358
76.88,586
77.2,394
77.52,558
77.84,1056
78.16,517
78.48,325
78.8,554
79.12,538
79.44,566
79.76,352
80.08,483
80.4,357
80.72,478
81.04,1110
81.36,690
81.68,2477
82,2954
82.32,533
82.64,1208
82.96,757
83.28,843
83.6,781
83.92,515
84.24,1470
84.56,685
84.88,1427
85.2,709
85.52,256
85.84,272
86.16,792
86.48,506
86.8,456
87.12,517
87.44,666
87.76,594
88.08,438
88.4,592
88.72,475
89.04,931
89.36,504
89.68,232
90,227
90.32,416
90.64,349
90.96,317
91.28,296
91.6,208
91.92,283
92.24,504
92.56,547
92.88,491
93.2,370
93.52,1314
93.84,898
94.16,386
94.48,274
94.8,282
95.12,221
95.44,251
95.76,786
96.08,642
96.4,733
96.72,781
97.04,622
97.36,707
97.68,872
98,464
98.32,333
98.64,293
98.96,802
99.28,699
99.6,826
99.92,851
100,1234