File: data/xrd_icdd_PDF/00-060-0223 (PD3).csv
4.77366,4008.86
5.07366,3932.92
5.37366,3897.47
5.67366,3864.81
5.97366,3855.46
6.27366,3845.42
6.57366,3819
6.87366,3827.51
7.17366,3815
7.47366,3820.82
7.77366,3802.25
8.07366,3800.8
8.37366,3781.61
8.67366,3790.3
8.97366,3780.66
9.27366,3774.67
9.57366,3765.22
9.87366,3758.06
10.17366,3756.89
10.47366,3767.97
10.77366,3747.47
11.07366,3757.8
11.37366,3748.12
11.67366,3766.29
11.97366,3744.26
12.27366,3737.58
12.57366,3743.97
12.87366,3733.82
13.17366,3739.9
13.47366,3723.52
13.77366,3739.81
14.07366,3734.15
14.37366,3728.67
14.67366,3732.29
14.97366,3723.89
15.27366,3727.72
15.57366,3711.42
15.87366,3730.02
16.17366,3712.62
16.47366,3716.25
16.77366,3721.14
17.07366,3740.92
17.37366,3963.94
17.67366,3691.19
17.97366,3723.54
18.27366,3722.06
18.57366,3720.14
18.87366,3716.66
19.17366,3717.38
19.47366,3709.01
19.77366,3725.47
20.07366,3725.35
20.37366,3718.25
20.67366,3722.67
20.97366,3722.73
21.27366,3727.24
21.57366,3723.37
21.87366,3729.76
22.17366,3721.88
22.47366,3723.94
22.77366,3721.71
23.07366,3724.94
23.37366,3710.46
23.67366,3721.91
23.97366,3710.9
24.27366,3721.57
24.57366,3890.17
24.87366,5523.78
25.17366,3846.84
25.47366,3693.55
25.77366,3703.68
26.07366,3711.96
26.37366,3900.84
26.67366,6917.8
26.97366,3738.42
27.27366,3692.94
27.57366,3700.11
27.87366,3719.49
28.17366,3720.41
28.47366,3740.15
28.77366,3708.81
29.07366,3713.34
29.37366,3878.96
29.67366,3720.45
29.97366,3728.58
30.27366,3709.68
30.57366,3709.77
30.87366,3722.99
31.17366,3709.45
31.47366,3715.22
31.77366,3716.91
32.07366,3712.86
32.37366,3726.55
32.67366,3732.36
32.97366,3697.57
33.27366,3703.29
33.57366,3707.52
33.87366,3697.35
34.17366,3648.47
34.47366,3706.76
34.77366,3682.04
35.07366,3701.29
35.37366,8303.24
35.67366,3768.5
35.97366,3706.69
36.27366,3785.81
36.57366,7329.48
36.87366,5581.25
37.17366,3842.74
37.47366,3712.11
37.77366,3716.78
38.07366,3715.39
38.37366,3701.15
38.67366,3726.88
38.97366,3729.72
39.27366,3862.31
39.57366,6260.32
39.87366,4909.41
40.17366,3792.63
40.47366,3745.69
40.77366,3701.88
41.07366,3706.81
41.37366,3702.88
41.67366,3723.84
41.97366,3713.8
42.27366,3724.24
42.57366,3891.7
42.87366,10494
43.17366,3817.17
43.47366,3712.02
43.77366,3714.25
44.07366,3701.71
44.37366,3713.52
44.67366,3916.12
44.97366,3761.74
45.27366,3679.7
45.57366,3930.795
45.87366,3756.91
46.17366,3858.04
46.47366,4664.9
46.77366,5178.57
47.07366,3935.67
47.37366,3723.43
47.67366,3738.98
47.97366,5101.02
48.27366,3953.22
48.57366,3792.25
48.87366,3702.28
49.17366,3694.52
49.47366,3697.92
49.77366,3710.28
50.07366,3710.4
50.37366,3705.77
50.67366,3719.18
50.97366,3715.92
51.27366,3689.46
51.57366,4039.61
51.87366,4443.01
52.17366,3697.84
52.47366,4568.97
52.77366,3706.46
53.07366,3731.6
53.37366,3719.76
53.67366,3711.76
53.97366,3725.98
54.27366,4273.18
54.57366,3702.66
54.87366,4082.72
55.17366,3815.57
55.47366,3720.35
55.77366,3726.42
56.07366,3711.29
56.37366,3716.16
56.67366,3798.079
56.97366,3740.4
57.27366,3877.86
57.57366,3853.11
57.87366,3883.09
58.17366,4427.45
58.47366,4707.58
58.77366,3750.15
59.07366,3685.74
59.37366,3707.71
59.67366,3872.59
59.97366,3823.31
60.27366,3772.96
60.57366,3748.73
60.87366,3829.78
61.17366,4153.79
61.47366,3827.65
61.77366,3714.8
62.07366,3718.65
62.37366,3710.36
62.67366,3750.41
62.97366,3679.84
63.27366,3709.41
63.57366,3701.68
63.87366,4391.94
64.17366,4990.26
64.47366,3698.42
64.77366,3714.37
65.07366,3717.96
65.37366,3703.47
65.67366,3713.24
65.97366,3710.11
66.27366,4563.12
66.57366,4151.31
66.87366,3873.29
67.17366,3722.75
67.47366,3704.38
67.77366,3704.66
68.07366,3694.74
68.37366,3722.17
68.67366,3706.66
68.97366,3721.32
69.27366,3702.45
69.57366,3772.08
69.87366,4132.91
70.17366,5649.94
70.47366,4018.39
70.77366,4248.71
71.07366,3626.59
71.37366,3785.38
71.67366,3708.43
71.97366,3703.21
72.27366,3655.26
72.57366,3605.27
72.87366,3715.82
73.17366,3708.15
73.47366,3703.61
73.77366,3715.65
74.07366,3832.5
74.37366,3666.37
74.67366,3815.17
74.97366,4032.44
75.27366,4321.45
75.57366,4644.04
75.87366,3814.96
76.17366,3710.83
76.47366,3701.8
76.77366,3755.35
77.07366,3661.37
77.37366,3707.15
77.67366,3711.27
77.97366,3959.57
78.27366,3722.88
78.57366,3686.6
78.87366,3695.8
79.17366,3714.55
79.47366,3708.91
79.77366,3709.85
80.07366,3712.21
80.37366,3726.62
80.67366,3716.81
80.97366,3706
81.27366,3703.57
81.57366,3697.29
81.87366,4026.01
82.17366,4333.2
82.47366,3722.17
82.77366,3699.22
83.07366,3725.19
83.37366,3705.89
83.67366,3703.71
83.97366,3706.86
84.27366,3708.57
84.57366,3697.18
84.87366,3704.17
85.17366,3712.33
85.47366,4455.72
85.77366,4142.07
86.07366,4934.76
86.37366,4053.67
86.67366,3784.38
86.97366,3750.42
87.27366,3738.88
87.57366,3706.83
87.87366,3693.72
88.17366,3712.16
88.47366,3843.99
88.77366,3932.6
89.07366,3691.94
89.37366,3708.08
89.67366,3707.05
89.97366,4143.53
90.27366,3928.73
90.57366,3698.25
90.87366,3712.59
91.17366,3714.61
91.47366,3719.92
91.77366,3711.32
92.07366,3720.87
92.31366,3659.82