File: data/xrd_icdd_PDF/00-058-0386 (PD3).csv
5,1124
5.4,1007
5.8,974
6.2,781
6.6,763
7,768
7.4,713
7.8,640
8.2,630
8.6,582
9,525
9.4,520
9.8,517
10.2,489
10.6,477
11,414
11.4,472
11.8,472
12.2,351
12.6,399
13,356
13.4,364
13.8,344
14.2,344
14.6,382
15,392
15.4,309
15.8,309
16.2,269
16.6,286
17,271
17.4,361
17.8,434
18.2,2789
18.6,319
19,266
19.4,246
19.8,246
20.2,231
20.6,201
21,238
21.4,171
21.8,236
22.2,186
22.6,289
23,2113
23.4,366
23.8,231
24.2,203
24.6,181
25,246
25.4,223
25.8,196
26.2,176
26.6,196
27,178
27.4,208
27.8,176
28.2,181
28.6,168
29,201
29.4,265
29.8,354
30.2,7507
30.6,510
31,224
31.4,236
31.8,208
32.2,191
32.6,193
33,188
33.4,174
33.8,237
34.2,379
34.6,1443
35,10449
35.4,6300
35.8,663
36.2,261
36.6,479
37,427
37.4,113
37.8,146
38.2,166
38.6,123
39,141
39.4,191
39.8,144
40.2,156
40.6,143
41,168
41.4,138
41.8,148
42.2,206
42.6,233
43,989
43.4,2118
43.8,294
44.2,221
44.6,151
45,126
45.4,95
45.8,156
46.2,141
46.6,133
47,208
47.4,542
47.8,128
48.2,853
48.6,276
49,148
49.4,474
49.8,487
50.2,266
50.6,213
51,201
51.4,638
51.8,1687
52.2,277
52.6,198
53,158
53.4,105
53.8,243
54.2,259
54.6,156
55,131
55.4,201
55.8,269
56.2,394
56.6,3662
57,1162
57.4,346
57.8,279
58.2,572
58.6,193
59,163
59.4,158
59.8,120
60.2,136
60.6,108
61,243
61.4,183
61.8,108
62.2,183
62.6,615
63,969
63.4,223
63.8,236
64.2,243
64.6,188
65,289
65.4,2861
65.8,494
66.2,301
66.6,176
67,163
67.4,151
67.8,374
68.2,171
68.6,196
69,254
69.4,999
69.8,851
70.2,211
70.6,339
71,560
71.4,1029
71.8,248
72.2,226
72.6,223
73,161
73.4,351
73.8,1870
74.2,1920
74.6,507
75,597
75.4,269
75.8,131
76.2,146
76.6,138
77,103
77.4,163
77.8,256
78.2,454
78.6,286
79,141
79.4,113
79.8,136
80.2,136
80.6,115
81,126
81.4,95
81.8,166
82.2,123
82.6,163
83,520
83.4,158
83.8,306
84.2,266
84.6,151
85,156
85.4,580
85.8,437
86.2,389
86.6,218
87,369
87.4,269
87.8,176
88.2,178
88.6,193
89,248
89.4,969
89.8,1089
90.2,281
90.6,203
91,136
91.4,148
91.8,115
92.2,143
92.6,158
93,188
93.4,171
93.8,778
94.2,969
94.6,678
95,562
95.4,266
95.8,221
96.2,226
96.6,259
97,708
97.4,1140
97.8,414
98.2,236
98.6,218
99,201
99.4,294
99.8,276
100.2,183
100.6,198
101,821
101.4,650
101.8,196
102.2,238
102.6,432
103,364
103.4,279
103.8,256
104.2,203
104.6,256
105,346
105.4,924
105.8,622
106.2,346
106.6,329
107,316
107.4,259
107.8,181
108.2,216
108.6,218
109,218
109.4,321
109.8,828
110.2,1305
110.6,1107
111,740
111.4,432
111.8,264
112.2,276
112.6,208
113,216
113.4,206
113.8,304
114.2,314
114.6,314
115,264
115.4,284
115.8,221
116.2,188
116.6,183
117,198
117.4,457
117.8,487
118.2,622
118.6,369
119,271
119.4,289
119.8,321
120.04,261