File: data/xrd_icdd_PDF/00-059-0838 (PD3).csv
5,92
5.46,85
5.92,88
6.38,85
6.84,81
7.3,72
7.76,79
8.22,76
8.68,62
9.14,76
9.6,85
10.06,67
10.52,50
10.98,59
11.44,69
11.9,62
12.36,67
12.82,62
13.28,72
13.74,48
14.2,62
14.66,66
15.12,76
15.58,77
16.04,222
16.5,149
16.96,66
17.42,59
17.88,46
18.34,55
18.8,58
19.26,67
19.72,55
20.18,61
20.64,53
21.1,56
21.56,56
22.02,56
22.48,48
22.94,37
23.4,59
23.86,55
24.32,52
24.78,53
25.24,44
25.7,56
26.16,53
26.62,894
27.08,146
27.54,56
28,69
28.46,56
28.92,55
29.38,49
29.84,53
30.3,44
30.76,45
31.22,52
31.68,56
32.14,48
32.6,76
33.06,2798
33.52,50
33.98,48
34.44,53
34.9,46
35.36,58
35.82,37
36.28,46
36.74,125
37.2,139
37.66,44
38.12,41
38.58,44
39.04,40
39.5,159
39.96,38
40.42,69
40.88,94
41.34,48
41.8,29
42.26,48
42.72,45
43.18,49
43.64,38
44.1,48
44.56,31
45.02,45
45.48,55
45.94,85
46.4,713
46.86,53
47.32,38
47.78,41
48.24,41
48.7,45
49.16,38
49.62,53
50.08,204
50.54,3204
51,88
51.46,53
51.92,44
52.38,40
52.84,41
53.3,45
53.76,44
54.22,55
54.68,71
55.14,480
55.6,79
56.06,53
56.52,53
56.98,42
57.44,38
57.9,55
58.36,46
58.82,42
59.28,38
59.74,30
60.2,72
60.66,2200
61.12,77
61.58,53
62.04,52
62.5,36
62.96,44
63.42,38
63.88,53
64.34,369
64.8,38
65.26,44
65.72,50
66.18,53
66.64,1267
67.1,74
67.56,41
68.02,85
68.48,480
68.94,135
69.4,918
69.86,77
70.32,59
70.78,49
71.24,34
71.7,45
72.16,48
72.62,45
73.08,48
73.54,50
74,29
74.46,45
74.92,38
75.38,48
75.84,67
76.3,250
76.76,139
77.22,61
77.68,59
78.14,58
78.6,112
79.06,154
79.52,56
79.98,83
80.44,520
80.9,193
81.36,635
81.82,104
82.28,72
82.74,66
83.2,44
83.66,59
84.12,64
84.58,94
85.04,515
85.5,72
85.96,66
86.42,55
86.88,66
87.34,66
87.8,96
88.26,259
88.72,71
89.18,61
89.64,56
90.1,66
90.56,180
91.02,46
91.48,66
91.94,90
92.4,59
92.86,44
93.32,42
93.78,58
94.24,328
94.7,303
95.16,67
95.62,48
96.08,64
96.54,369
97,90
97.46,71
97.92,53
98.38,50
98.84,49
99.3,56
99.76,90
100.22,59
100.68,52
101.14,66
101.6,50
102.06,61
102.52,59
102.98,66
103.44,128
103.9,225
104.36,416
104.82,420
105.28,58
105.74,79
106.2,149
106.66,85
107.12,69
107.58,56
108.04,74
108.5,166
108.96,76
109.42,76
109.88,48
110.34,49
110.8,45
111.26,53
111.72,41
112.18,67
112.64,58
113.1,76
113.56,62
114.02,144
114.48,149
114.94,85
115.4,67
115.86,246
116.32,185
116.78,955
117.24,543
117.7,137
118.16,94
118.62,562
119.08,357
119.54,79
120,71
120.46,77
120.92,74
121.38,66
121.84,55
122.3,66
122.76,62
123.22,69
123.68,81
124.14,96
124.6,262
125.06,237
125.52,243
125.98,94
126.44,92
126.9,64
127.36,85
127.82,161
128.28,117
128.74,86
129.2,96
129.66,620
130.12,222
130.58,256
131.04,328
131.5,458
131.96,90
132.42,76
132.88,88
133.34,88
133.8,72
134.26,85
134.72,62
135.18,86
135.64,100
136.1,128
136.56,106
137.02,102
137.48,85
137.94,83
138.4,66
138.86,77
139.32,77
139.78,71
140,96