File: data/xrd_icdd_PDF/00-051-0143 (PD3).csv
5,627
5.46,541
5.92,531
6.38,554
6.84,621
7.3,594
7.76,523
8.22,605
8.68,526
9.14,600
9.6,610
10.06,635
10.52,710
10.98,713
11.44,669
11.9,1663
12.36,720
12.82,782
13.28,823
13.74,782
14.2,783
14.66,799
15.12,866
15.58,858
16.04,821
16.5,833
16.96,3438
17.42,860
17.88,827
18.34,882
18.8,820
19.26,845
19.72,853
20.18,883
20.64,906
21.1,817
21.56,799
22.02,787
22.48,892
22.94,797
23.4,791
23.86,1007
24.32,1005
24.78,812
25.24,832
25.7,845
26.16,850
26.62,1026
27.08,1841
27.54,944
28,867
28.46,882
28.92,964
29.38,1688
29.84,1358
30.3,925
30.76,859
31.22,964
31.68,914
32.14,1869
32.6,874
33.06,899
33.52,875
33.98,906
34.44,1103
34.9,912
35.36,861
35.82,847
36.28,1176
36.74,868
37.2,844
37.66,821
38.12,817
38.58,857
39.04,804
39.5,837
39.96,869
40.42,1828
40.88,895
41.34,868
41.8,897
42.26,6340
42.72,924
43.18,919
43.64,850
44.1,2812
44.56,917
45.02,888
45.48,909
45.94,2255
46.4,940
46.86,918
47.32,1063
47.78,1690
48.24,926
48.7,892
49.16,1033
49.62,915
50.08,881
50.54,866
51,1569
51.46,971
51.92,886
52.38,1200
52.84,899
53.3,855
53.76,805
54.22,1072
54.68,913
55.14,902
55.6,1387
56.06,921
56.52,974
56.98,5650
57.44,1024
57.9,991
58.36,2387
58.82,968
59.28,830
59.74,869
60.2,1012
60.66,906
61.12,978
61.58,1133
62.04,883
62.5,944
62.96,1249
63.42,922
63.88,939
64.34,913
64.8,861
65.26,985
65.72,1802
66.18,901
66.64,948
67.1,992
67.56,880
68.02,941
68.48,1134
68.94,934
69.4,1077
69.86,1100
70.32,888
70.78,1592
71.24,995
71.7,918
72.16,1081
72.62,866
73.08,944
73.54,2307
74,964
74.46,885
74.92,978
75.38,960
75.84,987
76.3,1231
76.76,933
77.22,1477
77.68,974
78.14,886
78.6,1861
79.06,956
79.52,920
79.98,964
80.44,947
80.9,1077
81.36,1589
81.82,946
82.28,889
82.74,937
83.2,996
83.66,1735
84.12,1009
84.58,946
85.04,925
85.5,892
85.96,1023
86.42,1078
86.88,926
87.34,1096
87.8,976
88.26,996
88.72,1191
89.18,921
89.64,962
90.1,1043
90.56,973
91.02,1105
91.48,1141
91.94,947
92.4,1047
92.86,930
93.32,947
93.78,1201
94.24,986
94.7,985
95.16,1084
95.62,972
96.08,1440
96.54,1117
97,965
97.46,996
97.92,975
98.38,1107
98.84,1094
99.3,1015
99.76,1284
100.22,1083
100.68,949
101.14,1001
101.6,974
102.06,939
102.52,1002
102.98,1035
103.44,1249
103.9,1382
104.36,1021
104.82,1003
105.28,978
105.74,962
106.2,1122
106.66,1022
107.12,946
107.58,1094
108.04,996
108.5,951
108.96,1028
109.42,1010
109.88,1052
110.34,1027
110.8,1048
111.26,1228
111.72,1224
112.18,1013
112.64,969
113.1,956
113.56,980
114.02,1009
114.48,1011
114.94,1049
115.4,1072
115.86,1057
116.32,986
116.78,1155
117.24,1133
117.7,1023
118.16,1068
118.62,1022
119.08,1123
119.54,1503
120,1526
120.46,1251
120.92,1091
121.38,1086
121.84,996
122.3,1091
122.76,1248
123.22,1236
123.68,1059
124.14,1064
124.6,1074
125.06,1074
125.52,1055
125.98,952
126.44,1020
126.9,1110
127.36,1105
127.82,989
128.28,1065
128.74,1419
129.2,1241
129.66,1134
130.12,1290
130.58,1178
131.04,1147
131.5,1032
131.96,1161
132.42,1127
132.88,1083
133.34,1130
133.8,1257
134.26,1127
134.72,1090
135.18,1190
135.64,1232
136.1,1226
136.56,1090
137.02,1105
137.48,1091
137.94,1214
138.4,1194
138.86,1486
139.32,1494
139.78,1458
140,1377