File: data/xrd_icdd_PDF/00-060-0123 (PD3).csv
4.77366,3127.61
5.09366,2971.2
5.41366,2953.43
5.73366,2849.17
6.05366,2986.62
6.37366,2881.84
6.69366,2810.19
7.01366,2933.41
7.33366,2680.5
7.65366,2740.84
7.97366,2758.1
8.29366,2885.31
8.61366,2706.1
8.93366,2659.01
9.25366,2721.02
9.57366,2742.03
9.89366,2733.22
10.21366,2553.25
10.53366,2623.04
10.85366,2736.98
11.17366,2708.78
11.49366,2799.59
11.81366,2549.93
12.13366,2630.16
12.45366,2551.87
12.77366,2665.12
13.09366,2710.44
13.41366,2773.26
13.73366,2788.43
14.05366,2644.4
14.37366,2779.9
14.69366,2741.01
15.01366,2542.5
15.33366,2712.83
15.65366,2630.63
15.97366,2672.31
16.29366,2612.24
16.61366,2774.46
16.93366,2731.13
17.25366,2602.89
17.57366,2738.11
17.89366,2519.24
18.21366,2652.15
18.53366,4336.11
18.85366,2779.43
19.17366,2552.99
19.49366,2706.95
19.81366,2662.86
20.13366,2625.57
20.45366,2562.3
20.77366,2792.4
21.09366,2730.91
21.41366,2752.66
21.73366,2654.65
22.05366,2595.36
22.37366,2540.3
22.69366,2534.31
23.01366,2688.35
23.33366,2962.19
23.65366,4584.56
23.97366,4261.71
24.29366,3072.62
24.61366,2722.81
24.93366,2625.94
25.25366,2673.63
25.57366,2629.27
25.89366,2578.99
26.21366,2787.05
26.53366,2616.32
26.85366,2624.44
27.17366,2645.75
27.49366,2735.65
27.81366,2589.67
28.13366,2650.14
28.45366,2744.97
28.77366,2669.39
29.09366,2552.22
29.41366,2538.53
29.73366,2667.86
30.05366,2628.75
30.37366,2663.62
30.69366,2868.88
31.01366,5515.77
31.33366,4465.33
31.65366,2865.95
31.97366,2753.61
32.29366,2698.05
32.61366,2667.95
32.93366,2685.42
33.25366,2832.16
33.57366,2493.34
33.89366,2613.21
34.21366,2664.07
34.53366,2743.87
34.85366,2778.5
35.17366,2927.13
35.49366,3319.46
35.81366,16037
36.13366,5409.23
36.45366,18284
36.77366,4476.58
37.09366,3089.51
37.41366,3127.06
37.73366,6606.34
38.05366,2989.64
38.37366,2632.45
38.69366,2724.08
39.01366,2653.97
39.33366,2694.67
39.65366,2528.98
39.97366,2716.66
40.29366,2667.49
40.61366,2607.03
40.93366,2640.02
41.25366,2739.41
41.57366,2662.89
41.89366,2675.73
42.21366,2721.1
42.53366,2694.54
42.85366,2702.46
43.17366,2691.67
43.49366,2661.8
43.81366,2843.91
44.13366,2901.14
44.45366,5033.18
44.77366,6087.77
45.09366,3248.63
45.41366,2787.76
45.73366,2820.25
46.05366,2513.53
46.37366,2827.8
46.69366,2659.05
47.01366,2655.63
47.33366,2593.32
47.65366,2565.72
47.97366,2697.27
48.29366,2683.48
48.61366,3075.13
48.93366,2879.61
49.25366,2718.1
49.57366,2985.18
49.89366,2868.42
50.21366,2644.41
50.53366,2686.45
50.85366,2656.71
51.17366,6524.98
51.49366,2814.62
51.81366,2739.81
52.13366,2619.46
52.45366,2623.73
52.77366,3051.64
53.09366,7596.56
53.41366,2931.3
53.73366,2757.33
54.05366,2568.24
54.37366,2625.64
54.69366,2742.83
55.01366,2582.44
55.33366,2711.17
55.65366,2598.86
55.97366,2582.89
56.29366,2669.44
56.61366,2645.2
56.93366,2678.56
57.25366,2647.51
57.57366,2671.61
57.89366,2996.46
58.21366,3626.88
58.53366,11646.6
58.85366,3554.93
59.17366,3002.98
59.49366,2928.68
59.81366,5927.94
60.13366,2874.73
60.45366,2616.64
60.77366,2717.7
61.09366,2544.37
61.41366,2605.53
61.73366,2652.8
62.05366,2658.11
62.37366,2630.5
62.69366,2672.67
63.01366,2635.56
63.33366,2555.43
63.65366,2747.75
63.97366,2756.13
64.29366,2731.09
64.61366,2716.62
64.93366,5777.96
65.25366,3028.3
65.57366,2725.74
65.89366,2587.68
66.21366,2691.49
66.53366,2613.31
66.85366,2809.489
67.17366,3282.13
67.49366,4956.95
67.81366,2940.23
68.13366,3180.42
68.45366,2798.78
68.77366,2582.01
69.09366,2473.37
69.41366,2690.69
69.73366,2529.36
70.05366,2836.35
70.37366,2819.83
70.69366,2614.84
71.01366,2584.62
71.33366,2800.48
71.65366,4385.72
71.97366,4051.99
72.29366,2761.73
72.61366,2677.11
72.93366,2721.6
73.25366,3296.62
73.57366,3290.2
73.89366,3836.04
74.21366,2632.39
74.53366,2558.33
74.85366,2560.95
75.17366,2616.03
75.49366,2756.52
75.81366,2770.96
76.13366,3339.26
76.45366,4844.7
76.77366,6665.98
77.09366,4154.43
77.41366,3254.55
77.73366,3645.99
78.05366,2704.14
78.37366,2678.47
78.69366,2750.29
79.01366,2605.33
79.33366,2669.8
79.65366,2615.35
79.97366,2758.12
80.29366,2798.92
80.61366,3134.59
80.93366,2778.31
81.25366,2730.81
81.57366,2586.45
81.89366,2628.2
82.21366,2676.62
82.53366,2719.03
82.85366,2630.29
83.17366,2667.26
83.49366,2529.74
83.81366,2512.09
84.13366,2610.23
84.45366,2558.92
84.77366,2543.2
85.09366,2702.72
85.41366,2602.38
85.73366,2840.53
86.05366,2980.43
86.37366,2638.03
86.69366,2709.25
87.01366,3291.54
87.33366,3001.28
87.65366,2746.36
87.97366,2654.64
88.29366,2721.39
88.61366,3698.57
88.93366,3248.68
89.25366,2865.4
89.57366,2986.9
89.89366,3312.34
90.21366,3452.24
90.53366,2734.49
90.85366,2646.9
91.17366,2533.3
91.49366,2689.19
91.81366,2666.15
92.13366,2672.05
92.45366,2789.94
92.77366,3449.34
93.09366,5254.91
93.41366,3571.39
93.73366,2827.56
94.05366,2679.28
94.37366,2562.08
94.69366,2565.8
95.01366,2647.54
95.33366,2645.9
95.65366,2656.57
95.97366,2636.02
96.29366,2701.13
96.61366,2678.19
96.93366,2845.6
97.25366,3824.55
97.57366,4436.59
97.89366,3226.2
98.21366,2683.95
98.53366,2971.96
98.85366,3217.98
99.17366,2721.38
99.49366,2556.68
99.79366,2695.87