File: data/xrd_icdd_PDF/00-051-0137 (PD3).csv
5,574
5.46,574
5.92,540
6.38,560
6.84,540
7.3,512
7.76,434
8.22,504
8.68,504
9.14,451
9.6,479
10.06,468
10.52,470
10.98,428
11.44,437
11.9,563
12.36,409
12.82,493
13.28,431
13.74,437
14.2,454
14.66,437
15.12,451
15.58,414
16.04,451
16.5,493
16.96,868
17.42,496
17.88,459
18.34,437
18.8,395
19.26,470
19.72,378
20.18,378
20.64,420
21.1,370
21.56,367
22.02,389
22.48,347
22.94,353
23.4,398
23.86,417
24.32,700
24.78,431
25.24,347
25.7,350
26.16,417
26.62,510
27.08,24606
27.54,493
28,372
28.46,412
28.92,448
29.38,680
29.84,6331
30.3,501
30.76,468
31.22,384
31.68,437
32.14,7902
32.6,395
33.06,308
33.52,353
33.98,316
34.44,2274
34.9,344
35.36,300
35.82,319
36.28,328
36.74,1442
37.2,297
37.66,274
38.12,280
38.58,260
39.04,255
39.5,266
39.96,258
40.42,297
40.88,339
41.34,302
41.8,260
42.26,392
42.72,1378
43.18,325
43.64,294
44.1,428
44.56,546
45.02,260
45.48,255
45.94,462
46.4,347
46.86,297
47.32,316
47.78,6614
48.24,487
48.7,263
49.16,283
49.62,717
50.08,260
50.54,255
51,386
51.46,297
51.92,263
52.38,246
52.84,423
53.3,193
53.76,244
54.22,610
54.68,235
55.14,224
55.6,269
56.06,389
56.52,249
56.98,510
57.44,5163
57.9,342
58.36,302
58.82,1991
59.28,308
59.74,241
60.2,944
60.66,235
61.12,218
61.58,521
62.04,272
62.5,199
62.96,451
63.42,400
63.88,199
64.34,235
64.8,207
65.26,199
65.72,748
66.18,378
66.64,204
67.1,244
67.56,196
68.02,202
68.48,496
68.94,283
69.4,207
69.86,759
70.32,258
70.78,230
71.24,966
71.7,274
72.16,224
72.62,364
73.08,288
73.54,297
74,1397
74.46,238
74.92,190
75.38,218
75.84,196
76.3,263
76.76,498
77.22,213
77.68,389
78.14,398
78.6,199
79.06,1240
79.52,258
79.98,227
80.44,218
80.9,221
81.36,339
81.82,1159
82.28,238
82.74,185
83.2,204
83.66,230
84.12,843
84.58,316
85.04,207
85.5,202
85.96,168
86.42,221
86.88,356
87.34,171
87.8,190
88.26,269
88.72,210
89.18,706
89.64,398
90.1,216
90.56,258
91.02,199
91.48,392
91.94,470
92.4,190
92.86,344
93.32,311
93.78,241
94.24,829
94.7,274
95.16,274
95.62,384
96.08,238
96.54,616
97,459
97.46,213
97.92,288
98.38,232
98.84,202
99.3,398
99.76,356
100.22,263
100.68,571
101.14,347
101.6,232
102.06,224
102.52,210
102.98,344
103.44,294
103.9,232
104.36,1294
104.82,672
105.28,241
105.74,196
106.2,190
106.66,196
107.12,465
107.58,227
108.04,221
108.5,330
108.96,235
109.42,274
109.88,246
110.34,204
110.8,224
111.26,300
111.72,249
112.18,426
112.64,546
113.1,302
113.56,227
114.02,218
114.48,224
114.94,258
115.4,207
115.86,241
116.32,389
116.78,344
117.24,269
117.7,507
118.16,400
118.62,241
119.08,213
119.54,227
120,255
120.46,792
120.92,966
121.38,571
121.84,305
122.3,336
122.76,314
123.22,286
123.68,669
124.14,521
124.6,316
125.06,286
125.52,286
125.98,252
126.44,272
126.9,230
127.36,260
127.82,224
128.28,230
128.74,238
129.2,272
129.66,529
130.12,591
130.58,451
131.04,344
131.5,381
131.96,389
132.42,322
132.88,356
133.34,344
133.8,316
134.26,314
134.72,370
135.18,378
135.64,333
136.1,308
136.56,330
137.02,403
137.48,445
137.94,356
138.4,283
138.86,414
139.32,308
139.78,302
140,336