File: data/xrd_icdd_PDF/00-063-0398 (PD3).csv
5,619
5.4,564
5.8,554
6.2,517
6.6,530
7,534
7.4,471
7.8,485
8.2,450
8.6,464
9,446
9.4,398
9.8,381
10.2,385
10.6,356
11,348
11.4,368
11.8,337
12.2,381
12.6,392
13,328
13.4,324
13.8,327
14.2,281
14.6,305
15,264
15.4,287
15.8,294
16.2,266
16.6,243
17,329
17.4,293
17.8,293
18.2,259
18.6,293
19,267
19.4,225
19.8,252
20.2,227
20.6,243
21,312
21.4,345
21.8,224
22.2,249
22.6,230
23,347
23.4,269
23.8,1350
24.2,304
24.6,229
25,268
25.4,519
25.8,658
26.2,658
26.6,267
27,242
27.4,217
27.8,246
28.2,221
28.6,264
29,271
29.4,251
29.8,260
30.2,260
30.6,450
31,346
31.4,233
31.8,267
32.2,262
32.6,345
33,424
33.4,2285
33.8,1316
34.2,9140
34.6,11390
35,1027
35.4,454
35.8,1835
36.2,658
36.6,1973
37,365
37.4,309
37.8,381
38.2,496
38.6,5072
39,1004
39.4,5539
39.8,673
40.2,374
40.6,349
41,300
41.4,349
41.8,355
42.2,589
42.6,2320
43,928
43.4,1754
43.8,379
44.2,316
44.6,336
45,274
45.4,331
45.8,288
46.2,338
46.6,324
47,546
47.4,388
47.8,320
48.2,332
48.6,454
49,866
49.4,309
49.8,330
50.2,401
50.6,382
51,470
51.4,327
51.8,413
52.2,866
52.6,1246
53,381
53.4,367
53.8,464
54.2,485
54.6,373
55,379
55.4,623
55.8,574
56.2,1125
56.6,894
57,404
57.4,1021
57.8,1869
58.2,1212
58.6,436
59,1924
59.4,1895
59.8,753
60.2,494
60.6,379
61,324
61.4,314
61.8,323
62.2,438
62.6,738
63,405
63.4,414
63.8,453
64.2,485
64.6,831
65,397
65.4,362
65.8,526
66.2,1800
66.6,743
67,437
67.4,566
67.8,372
68.2,367
68.6,579
69,367
69.4,492
69.8,374
70.2,827
70.6,448
71,338
71.4,479
71.8,1593
72.2,487
72.6,350
73,392
73.4,727
73.8,762
74.2,589
74.6,371
75,692
75.4,502
75.8,913
76.2,680
76.6,500
77,762
77.4,779
77.8,553
78.2,350
78.6,351
79,640
79.4,1004
79.8,391
80.2,411
80.6,381
81,355
81.4,309
81.8,322
82.2,335
82.6,315
83,464
83.4,365
83.8,366
84.2,479
84.6,472
85,398
85.4,371
85.8,335
86.2,343
86.6,357
87,390
87.4,394
87.8,424
88.2,340
88.6,367
89,750
89.4,539
89.8,549
90.2,400
90.6,368
91,364
91.4,322
91.8,406
92.2,382
92.6,381
93,675
93.4,415
93.8,381
94.2,480
94.6,631
95,684
95.4,560
95.8,398
96.2,340
96.6,362
97,393
97.4,413
97.8,545
98.2,555
98.6,506
99,453
99.4,361
99.8,475
100.2,549
100.6,497
101,1333
101.4,900
101.8,397
102.2,421
102.6,407
103,410
103.4,588
103.8,471
104.2,353
104.6,382
105,495
105.4,693
105.8,547
106.2,399
106.6,386
107,444
107.4,472
107.8,455
108.2,459
108.6,467
109,441
109.4,386
109.8,386
110.2,396
110.6,831
111,883
111.4,710
111.8,692
112.2,500
112.6,386
113,380
113.4,380
113.8,414
114.2,381
114.6,379
115,488
115.4,469
115.8,416
116.2,623
116.6,589
117,523
117.4,485
117.8,381
118.2,463
118.6,446
119,366
119.4,404
119.8,446
120.02,380