File: data/xrd_icdd_PDF/00-060-0212 (PD3).csv
10,1525
10.32,1476
10.64,1509
10.96,1416
11.28,1467
11.6,1860
11.92,1462
12.24,1371
12.56,1359
12.88,1401
13.2,1355
13.52,1353
13.84,1306
14.16,1359
14.48,1409
14.8,1333
15.12,1356
15.44,1348
15.76,1301
16.08,1287
16.4,1324
16.72,1384
17.04,1352
17.36,1356
17.68,1585
18,1783
18.32,1423
18.64,1367
18.96,1326
19.28,1310
19.6,1309
19.92,1293
20.24,1331
20.56,1322
20.88,1263
21.2,1337
21.52,1270
21.84,1277
22.16,1227
22.48,1486
22.8,1549
23.12,1258
23.44,1509
23.76,1311
24.08,1265
24.4,1295
24.72,1235
25.04,1282
25.36,1293
25.68,1274
26,1299
26.32,1703
26.64,1590
26.96,1415
27.28,2182
27.6,1345
27.92,1341
28.24,1824
28.56,1340
28.88,1318
29.2,1303
29.52,1359
29.84,1317
30.16,1354
30.48,1292
30.8,1351
31.12,1488
31.44,4109
31.76,1431
32.08,1360
32.4,1368
32.72,1311
33.04,1349
33.36,1413
33.68,1355
34,1353
34.32,1360
34.64,1404
34.96,1635
35.28,2323
35.6,15128
35.92,4821
36.24,6249
36.56,2316
36.88,3871
37.2,7780
37.52,1957
37.84,1980
38.16,4910
38.48,2816
38.8,1883
39.12,2083
39.44,4376
39.76,7439
40.08,1979
40.4,1655
40.72,1520
41.04,1516
41.36,1495
41.68,1535
42,1494
42.32,1509
42.64,1607
42.96,2313
43.28,1904
43.6,1639
43.92,1613
44.24,1832
44.56,7576
44.88,2681
45.2,2477
45.52,4533
45.84,1660
46.16,1488
46.48,1696
46.8,1529
47.12,1489
47.44,1713
47.76,2353
48.08,2455
48.4,1709
48.72,1497
49.04,1456
49.36,1399
49.68,1529
50,1495
50.32,1517
50.64,1896
50.96,1951
51.28,1507
51.6,1394
51.92,1371
52.24,1320
52.56,1418
52.88,1425
53.2,1575
53.52,1375
53.84,1393
54.16,1419
54.48,1368
54.8,1334
55.12,1392
55.44,1628
55.76,2059
56.08,3290
56.4,2007
56.72,2255
57.04,1458
57.36,1577
57.68,1543
58,1447
58.32,1522
58.64,2000
58.96,2375
59.28,1652
59.6,1932
59.92,1789
60.24,3800
60.56,1771
60.88,1555
61.2,1954
61.52,1898
61.84,1503
62.16,1417
62.48,1452
62.8,1518
63.12,2150
63.44,1622
63.76,2363
64.08,2012
64.4,1556
64.72,2041
65.04,2510
65.36,2242
65.68,3108
66,1712
66.32,1490
66.64,2100
66.96,1584
67.28,1505
67.6,1866
67.92,1640
68.24,1605
68.56,1554
68.88,1632
69.2,2238
69.52,1711
69.84,1494
70.16,1466
70.48,1421
70.8,1475
71.12,1475
71.44,1544
71.76,1467
72.08,1481
72.4,1716
72.72,2162
73.04,1562
73.36,1507
73.68,1610
74,2236
74.32,3586
74.64,2414
74.96,2302
75.28,1977
75.6,1673
75.92,1711
76.24,2407
76.56,2931
76.88,2093
77.2,2558
77.52,1682
77.84,1499
78.16,1474
78.48,1564
78.8,2434
79.12,2043
79.44,1443
79.76,1476
80.08,1478
80.4,1686
80.72,1748
81.04,1435
81.36,1399
81.68,1430
82,1588
82.32,1523
82.64,1505
82.96,1836
83.28,1720
83.6,1631
83.92,1810
84.24,1546
84.56,1503
84.88,1391
85.2,1530
85.52,1435
85.84,1428
86.16,1483
86.48,1416
86.8,1564
87.12,1698
87.44,1476
87.76,1403
88.08,1444
88.4,1329
88.72,1415
89.04,1379
89.36,1433
89.68,1615
90,1622
90.32,1423
90.64,1357
90.96,1440
91.28,1493
91.6,1584
91.92,1519
92.24,1386
92.56,1466
92.88,1464
93.2,1475
93.52,1741
93.84,1593
94.16,1688
94.48,1696
94.8,1506
95.12,1351
95.44,1469
95.76,1450
96.08,1406
96.4,1446
96.72,1477
97.04,1442
97.36,1430
97.68,1573
98,1645
98.32,1777
98.64,2116
98.96,1890
99.28,1756
99.6,1856
99.92,1736
100.24,1605
100.56,1561
100.88,1505
101.2,1538
101.52,1545
101.84,1597
102.16,1603
102.48,1596
102.8,1549
103.12,1533
103.44,1498
103.76,1445