File: data/xrd_icdd_PDF/00-066-0829 (PD3).csv
20.01671,307.9915
20.2477,362.3548
20.4787,339.7795
20.70969,334.8948
20.94068,348.9899
21.17168,333.8057
21.40267,324.6377
21.63366,372.2397
21.86466,432.8959
22.09565,1748.73
22.32664,1706.88
22.55763,333.399
22.78863,338.6382
23.01962,301.1258
23.25061,328.6195
23.48161,309.2572
23.7126,292.3369
23.94359,324.4161
24.17459,306.5843
24.40558,261.9651
24.63657,300.3985
24.86756,297.0368
25.09856,280.1684
25.32955,284.2484
25.56054,254.2215
25.79154,268.0366
26.02253,282.1069
26.25352,257.3017
26.48452,266.2571
26.71551,272.5318
26.9465,272.5848
27.17749,249.9825
27.40849,275.4162
27.63948,293.0453
27.87047,252.7786
28.10147,269.8322
28.33246,276.2572
28.56345,297.9481
28.79445,247.1862
29.02544,254.0978
29.25643,250.7084
29.48742,234.7571
29.71842,241.746
29.94941,270.771
30.1804,265.5758
30.4114,275.6318
30.64239,318.134
30.87338,355.3635
31.10438,391.7794
31.33537,1048.56
31.56636,14142
31.79735,2435.71
32.02835,382.4388
32.25934,301.0543
32.49033,279.5476
32.72133,265.5598
32.95232,303.8949
33.18331,264.2067
33.41431,261.8992
33.6453,268.4456
33.87629,235.2864
34.10728,232.7584
34.33828,277.1173
34.56927,241.3948
34.80026,228.9437
35.03126,237.0231
35.26225,248.1032
35.49324,217.677
35.72424,226.7111
35.95523,213.6075
36.18622,223.35
36.41721,218.2976
36.64821,215.4595
36.8792,221.8993
37.11019,206.4498
37.34119,212.9241
37.57218,217.3215
37.80317,226.0862
38.03417,213.3312
38.26516,194.2798
38.49615,298.4799
38.72714,445.885
38.95814,4723.26
39.18913,350.5031
39.42012,230.3145
39.65112,237.2801
39.88211,216.0254
40.1131,228.0048
40.3441,223.2619
40.57509,211.7596
40.80608,178.2844
41.03707,197.7891
41.26807,219.4482
41.49906,196.9262
41.73005,203.9138
41.96105,200.8032
42.19204,198.3223
42.42303,200.4277
42.65403,217.8808
42.88502,179.2495
43.11601,173.6449
43.347,217.39
43.578,193.8132
43.80899,206.9763
44.03998,199.8387
44.27098,217.3694
44.50197,210.1019
44.73296,306.4319
44.96396,1860.54
45.19495,1070.1
45.42594,4054.8
45.65693,397.6359
45.88793,221.3345
46.11892,195.9909
46.34991,182.9638
46.58091,211.6907
46.8119,186.8036
47.04289,186.4965
47.27389,179.3553
47.50488,174.4248
47.73587,177.869
47.96686,188.4056
48.19786,190.8167
48.42885,177.8955
48.65984,179.255
48.89084,173.4066
49.12183,176.8398
49.35282,181.4448
49.58382,206.4744
49.81481,198.7723
50.0458,171.0191
50.27679,168.724
50.50779,197.3746
50.73878,685.9258
50.96977,657.697
51.20077,607.0482
51.43176,178.4717
51.66275,188.8831
51.89375,179.5908
52.12474,199.5944
52.35573,185.0427
52.58672,169.9659
52.81772,177.8492
53.04871,182.2999
53.2797,187.0374
53.5107,165.3271
53.74169,199.5574
53.97268,177.8745
54.20368,169.6406
54.43467,196.0338
54.66566,183.362
54.89665,186.9302
55.12765,194.031
55.35864,201.3556
55.58963,210.4212
55.82063,321.4568
56.05162,2133
56.28261,3686.75
56.51361,1416.9
56.7446,236.7424
56.97559,182.692
57.20658,194.5197
57.43758,175.0193
57.66857,175.6166
57.89956,182.1235
58.13056,162.9823
58.36155,172.7583
58.59254,196.451
58.82354,163.5404
59.05453,183.46
59.28552,171.8577
59.51651,193.0049
59.74751,170.2234
59.9785,158.964
60.20949,156.8144
60.44049,158.259
60.67148,186.6737
60.90247,165.1572
61.13347,171.9997
61.36446,165.3542
61.59545,157.5752
61.82644,160.7247
62.05744,164.3975
62.28843,158.9912
62.51942,150.9919
62.75042,175.0276
62.98141,161.1059
63.2124,153.4238
63.4434,175.7357
63.67439,181.8967
63.90538,182.9621
64.13637,172.9905
64.36737,159.0967
64.59836,185.1434
64.82935,182.1399
65.06035,183.0876
65.29134,196.5137
65.52233,227.8189
65.75333,1232.01
65.98432,1415.97
66.21531,688.6868
66.4463,245.0137
66.6773,176.6589
66.90829,165.8851
67.13928,161.4009
67.37028,196.1627
67.60127,161.6022
67.83226,155.2215
68.06326,167.1356
68.29425,158.4263
68.52524,182.1766
68.75623,177.7034
68.98723,161.1852
69.21822,156.2395
69.44921,188.7939
69.68021,178.1232
69.9112,187.8062
70.14219,219.7658
70.37319,513.4918
70.60418,529.4659
70.83517,304.3292
71.06616,164.7604
71.29716,168.1144
71.52815,168.4547
71.75914,145.8216
71.99014,162.991
72.22113,173.9917
72.45212,156.5227
72.68312,164.752
72.91411,187.6768
73.1451,172.1772
73.37609,172.7154
73.60709,165.4011
73.83808,155.5677
74.06907,206.3971
74.30007,240.3853
74.53106,530.7666
74.76205,469.2597
74.99305,504.123
75.22404,934.8267
75.45503,483.3371
75.68602,191.6962
75.91702,171.0936
76.14801,181.0079
76.379,179.3223
76.61,158.6787
76.84099,170.591
77.07198,144.5549
77.30298,175.5669
77.53397,160.0989
77.76496,150.3562
77.99595,176.4406
78.22695,164.9819
78.45794,171.8097
78.68893,189.7255
78.91993,350.7704
79.15092,324.5985
79.38191,429.4956
79.61291,315.3773
79.8439,218.3659
79.9429,186.1175