File: data/xrd_icdd_PDF/00-058-0321 (PD3).csv
10,7055
10.32,6758
10.64,6692
10.96,6524
11.28,6296
11.6,6091
11.92,5725
12.24,5649
12.56,5563
12.88,5626
13.2,5415
13.52,5052
13.84,5194
14.16,5065
14.48,5240
14.8,5058
15.12,4893
15.44,4775
15.76,4428
16.08,4398
16.4,4313
16.72,4422
17.04,4326
17.36,4306
17.68,4362
18,4210
18.32,4088
18.64,4247
18.96,4316
19.28,5996
19.6,3950
19.92,3874
20.24,3844
20.56,3884
20.88,3715
21.2,3656
21.52,3798
21.84,3623
22.16,3636
22.48,3425
22.8,3560
23.12,3511
23.44,3501
23.76,3524
24.08,3573
24.4,3818
24.72,3554
25.04,3725
25.36,3758
25.68,4200
26,8916
26.32,31851
26.64,4649
26.96,4309
27.28,4544
27.6,4996
27.92,16401
28.24,4530
28.56,4389
28.88,4398
29.2,4181
29.52,3976
29.84,4085
30.16,4002
30.48,4111
30.8,4425
31.12,4286
31.44,4075
31.76,17836
32.08,4286
32.4,3620
32.72,3917
33.04,3798
33.36,3699
33.68,3309
34,5979
34.32,11348
34.64,3643
34.96,3663
35.28,4613
35.6,23090
35.92,3765
36.24,3313
36.56,3059
36.88,3108
37.2,3267
37.52,3217
37.84,3095
38.16,3220
38.48,3207
38.8,3481
39.12,4527
39.44,3719
39.76,3712
40.08,3887
40.4,3623
40.72,5775
41.04,3841
41.36,4643
41.68,3765
42,3705
42.32,3758
42.64,7378
42.96,8197
43.28,11536
43.6,4237
43.92,3778
44.24,3762
44.56,5547
44.88,6840
45.2,3600
45.52,3521
45.84,4481
46.16,3428
46.48,3465
46.8,3956
47.12,7623
47.44,3402
47.76,3201
48.08,3217
48.4,3237
48.72,4455
49.04,3847
49.36,2871
49.68,2900
50,3055
50.32,3306
50.64,2709
50.96,3214
51.28,5118
51.6,2923
51.92,2580
52.24,2600
52.56,3026
52.88,7177
53.2,3022
53.52,2521
53.84,4078
54.16,3286
54.48,3897
54.8,3022
55.12,3930
55.44,3003
55.76,2643
56.08,2352
56.4,2696
56.72,3639
57.04,4214
57.36,4101
57.68,3821
58,2986
58.32,3709
58.64,2603
58.96,2329
59.28,2399
59.6,2362
59.92,2409
60.24,2620
60.56,2775
60.88,2607
61.2,3161
61.52,5662
61.84,4745
62.16,2801
62.48,2481
62.8,2537
63.12,2765
63.44,4695
63.76,2857
64.08,2494
64.4,2438
64.72,2359
65.04,2494
65.36,3148
65.68,2521
66,2554
66.32,2943
66.64,2788
66.96,2531
67.28,2801
67.6,4933
67.92,5530
68.24,3042
68.56,3234
68.88,5332
69.2,5639
69.52,2953
69.84,2798
70.16,3016
70.48,2758
70.8,2415
71.12,2488
71.44,2484
71.76,2673
72.08,3544
72.4,2775
72.72,2560
73.04,2524
73.36,3230
73.68,3372
74,3036
74.32,5583
74.64,5834
74.96,4699
75.28,3471
75.6,2630
75.92,2438
76.24,2494
76.56,2442
76.88,2392
77.2,2428
77.52,2488
77.84,2887
78.16,3184
78.48,4115
78.8,4455
79.12,3550
79.44,2607
79.76,2570
80.08,3339
80.4,3877
80.72,3059
81.04,2531
81.36,2481
81.68,2511
82,3174
82.32,2857
82.64,2498
82.96,2468
83.28,2484
83.6,2418
83.92,2620
84.24,3240
84.56,3059
84.88,2547
85.2,2725
85.52,2778
85.84,2501
86.16,2600
86.48,2428
86.8,2653
87.12,2455
87.44,2366
87.76,2343
88.08,2359
88.4,2706
88.72,2527
89.04,2630
89.36,3144
89.68,2679
90,2267
90.32,2425
90.64,2369
90.96,2557
91.28,2379
91.6,2343
91.92,2260
92.24,2313
92.56,2323
92.88,2435
93.2,2277
93.52,2372
93.84,2316
94.16,2405
94.48,2517
94.8,3593
95.12,3936
95.44,3105
95.76,2682
96.08,2623
96.4,2742
96.72,2587
97.04,2432
97.36,2560
97.68,2666
98,2560
98.32,2508
98.64,2465
98.96,2488
99.28,2649
99.6,2821
99.92,2636
100,2620