File: data/xrd_icdd_PDF/00-058-0342 (PD3).csv
10,1850
10.29,1872
10.58,1838
10.87,1828
11.16,1988
11.45,1803
11.74,1740
12.03,1823
12.32,1687
12.61,1774
12.9,1828
13.19,1741
13.48,1761
13.77,1702
14.06,1665
14.35,1706
14.64,1651
14.93,1606
15.22,1642
15.51,1618
15.8,1652
16.09,1623
16.38,1583
16.67,2224
16.96,1599
17.25,1585
17.54,1561
17.83,1574
18.12,1574
18.41,1571
18.7,1536
18.99,1541
19.28,1511
19.57,1516
19.86,1459
20.15,1508
20.44,1511
20.73,1665
21.02,1596
21.31,1417
21.6,1668
21.89,1852
22.18,1534
22.47,1444
22.76,1458
23.05,1469
23.34,1435
23.63,1390
23.92,1384
24.21,1420
24.5,1408
24.79,1343
25.08,2529
25.37,1389
25.66,3421
25.95,1413
26.24,1329
26.53,1354
26.82,1538
27.11,1434
27.4,2039
27.69,1413
27.98,1315
28.27,1260
28.56,1239
28.85,1268
29.14,1256
29.43,1306
29.72,2402
30.01,1363
30.3,2044
30.59,1496
30.88,1264
31.17,1201
31.46,1203
31.75,1252
32.04,1250
32.33,1138
32.62,1164
32.91,4177
33.2,1806
33.49,4916
33.78,2918
34.07,1210
34.36,1129
34.65,1162
34.94,1799
35.23,9598
35.52,1307
35.81,1182
36.1,1709
36.39,1108
36.68,1193
36.97,1833
37.26,2692
37.55,1851
37.84,2293
38.13,1197
38.42,2298
38.71,1096
39,1044
39.29,1031
39.58,1113
39.87,1007
40.16,1084
40.45,1009
40.74,1089
41.03,1052
41.32,1114
41.61,1720
41.9,1115
42.19,1197
42.48,1311
42.77,5128
43.06,1779
43.35,1168
43.64,1335
43.93,1185
44.22,2442
44.51,2889
44.8,1144
45.09,1200
45.38,1820
45.67,1141
45.96,1043
46.25,1097
46.54,1020
46.83,1006
47.12,1222
47.41,1153
47.7,1177
47.99,1157
48.28,999
48.57,987
48.86,1016
49.15,936
49.44,946
49.73,960
50.02,1007
50.31,1242
50.6,1668
50.89,997
51.18,895
51.47,1309
51.76,1194
52.05,1034
52.34,1742
52.63,1872
52.92,1082
53.21,1705
53.5,1048
53.79,1020
54.08,983
54.37,1188
54.66,987
54.95,974
55.24,977
55.53,1462
55.82,1106
56.11,1078
56.4,1725
56.69,1007
56.98,970
57.27,1629
57.56,1138
57.85,968
58.14,1066
58.43,1380
58.72,1030
59.01,1244
59.3,977
59.59,1031
59.88,920
60.17,896
60.46,968
60.75,918
61.04,952
61.33,1049
61.62,903
61.91,943
62.2,912
62.49,967
62.78,913
63.07,894
63.36,1262
63.65,1444
63.94,932
64.23,1810
64.52,937
64.81,834
65.1,919
65.39,887
65.68,1064
65.97,978
66.26,915
66.55,882
66.84,905
67.13,1059
67.42,817
67.71,882
68,929
68.29,936
68.58,874
68.87,915
69.16,1024
69.45,895
69.74,1378
70.03,1762
70.32,1484
70.61,1364
70.9,1248
71.19,918
71.48,961
71.77,968
72.06,993
72.35,1397
72.64,1001
72.93,1167
73.22,1008
73.51,1512
73.8,986
74.09,1218
74.38,928
74.67,1763
74.96,1031
75.25,985
75.54,811
75.83,954
76.12,955
76.41,977
76.7,908
76.99,905
77.28,855
77.57,829
77.86,869
78.15,849
78.44,817
78.73,791
79.02,946
79.31,925
79.6,869
79.89,867
80.18,880
80.47,862
80.76,841
81.05,907
81.34,883
81.63,1131
81.92,930
82.21,859
82.5,833
82.79,808
83.08,886
83.37,1088
83.66,832
83.95,772
84.24,767
84.53,820
84.82,934
85.11,939
85.4,955
85.69,872
85.98,966
86.27,807
86.56,857
86.85,868
87.14,936
87.43,832
87.72,800
88.01,776
88.3,817
88.59,807
88.88,818
89.17,745
89.46,784
89.75,906
90.04,852
90.33,859
90.62,800
90.91,813
91.2,896
91.49,788
91.78,930
92.07,757
92.36,874
92.65,790
92.94,808
93.23,742
93.52,816
93.81,1021
94.1,801
94.39,846
94.68,886
94.97,809
94.99,794