File: data/xrd_icdd_PDF/00-063-0342 (PD3).csv
20,434
20.33,438
20.66,436
20.99,411
21.32,361
21.65,397
21.98,394
22.31,409
22.64,1084
22.97,813
23.3,461
23.63,1345
23.96,277
24.29,296
24.62,252
24.95,259
25.28,256
25.61,259
25.94,228
26.27,269
26.6,213
26.93,226
27.26,233
27.59,203
27.92,208
28.25,209
28.58,317
28.91,227
29.24,220
29.57,203
29.9,194
30.23,190
30.56,208
30.89,213
31.22,206
31.55,227
31.88,327
32.21,1016
32.54,4353
32.87,3678
33.2,4992
33.53,394
33.86,222
34.19,186
34.52,250
34.85,174
35.18,159
35.51,175
35.84,251
36.17,183
36.5,178
36.83,169
37.16,152
37.49,185
37.82,164
38.15,159
38.48,172
38.81,143
39.14,159
39.47,157
39.8,171
40.13,318
40.46,2314
40.79,402
41.12,164
41.45,178
41.78,164
42.11,163
42.44,149
42.77,186
43.1,149
43.43,216
43.76,128
44.09,140
44.42,147
44.75,128
45.08,130
45.41,145
45.74,192
46.07,379
46.4,1957
46.73,1114
47.06,334
47.39,200
47.72,193
48.05,298
48.38,1587
48.71,206
49.04,164
49.37,131
49.7,124
50.03,115
50.36,153
50.69,127
51.02,135
51.35,122
51.68,132
52.01,167
52.34,480
52.67,464
53,260
53.33,167
53.66,166
53.99,539
54.32,216
54.65,128
54.98,118
55.31,128
55.64,133
55.97,144
56.3,148
56.63,143
56.96,150
57.29,165
57.62,241
57.95,687
58.28,2846
58.61,1043
58.94,349
59.27,949
59.6,1597
59.93,259
60.26,200
60.59,164
60.92,149
61.25,141
61.58,134
61.91,128
62.24,127
62.57,117
62.9,121
63.23,120
63.56,120
63.89,127
64.22,127
64.55,146
64.88,125
65.21,136
65.54,151
65.87,135
66.2,121
66.53,139
66.86,128
67.19,123
67.52,194
67.85,649
68.18,498
68.51,185
68.84,214
69.17,881
69.5,1081
69.83,257
70.16,153
70.49,128
70.82,146
71.15,130
71.48,138
71.81,120
72.14,122
72.47,148
72.8,173
73.13,215
73.46,132
73.79,162
74.12,302
74.45,154
74.78,122
75.11,126
75.44,135
75.77,179
76.1,138
76.43,143
76.76,176
77.09,498
77.42,557
77.75,524
78.08,360
78.41,220
78.74,148
79.07,165
79.4,142
79.73,152
80.06,252
80.39,652
80.72,189
81.05,132
81.38,134
81.71,139
82.04,313
82.37,225
82.7,158
83.03,132
83.36,132
83.69,116
84.02,111
84.35,122
84.68,179
85.01,206
85.34,117
85.67,111
86,114
86.33,115
86.66,116
86.99,133
87.32,204
87.65,714
87.98,383
88.31,139
88.64,129
88.97,117
89.3,123
89.63,116
89.96,109
90.29,124
90.62,161
90.95,145
91.28,129
91.61,123
91.94,155
92.27,131
92.6,149
92.93,130
93.26,139
93.59,182
93.92,200
94.25,143
94.58,122
94.91,161
95.24,251
95.57,524
95.9,486
96.23,456
96.56,566
96.89,438
97.22,256
97.55,168
97.88,225
98.21,811
98.54,505
98.87,182
99.2,125
99.53,107
99.86,108
100.19,112
100.52,115
100.85,106
101.18,115
101.51,102
101.84,95
102.17,118
102.5,121
102.83,123
103.16,103
103.49,108
103.82,178
104.15,191
104.48,141
104.81,134
105.14,185
105.47,144
105.8,114
106.13,119
106.46,121
106.79,111
107.12,113
107.45,114
107.78,110
108.11,122
108.44,122
108.77,128
109.1,159
109.43,135
109.76,216
110.09,227
110.42,161
110.75,145
111.08,138
111.41,122
111.74,121
112.07,200
112.4,158
112.73,145
113.06,138
113.39,226
113.72,344
114.05,337
114.38,278
114.71,249
114.98,115