File: data/xrd_icdd_PDF/00-054-0249 (PD3).csv
3,759
3.3,635
3.6,688
3.9,648
4.2,612
4.5,637
4.8,604
5.1,587
5.4,572
5.7,609
6,650
6.3,706
6.6,720
6.9,670
7.2,673
7.5,723
7.8,780
8.1,818
8.4,838
8.7,779
9,809
9.3,847
9.6,909
9.9,1011
10.2,1035
10.5,1059
10.8,1144
11.1,1174
11.4,1175
11.7,1280
12,1281
12.3,1210
12.6,1312
12.9,1336
13.2,1326
13.5,1414
13.8,2024
14.1,3217
14.4,2438
14.7,10637
15,1445
15.3,1469
15.6,1585
15.9,1463
16.2,1410
16.5,1494
16.8,1517
17.1,1973
17.4,2113
17.7,1426
18,1490
18.3,1440
18.6,1507
18.9,1456
19.2,1394
19.5,1463
19.8,1420
20.1,1445
20.4,1442
20.7,1357
21,1454
21.3,1447
21.6,1400
21.9,1465
22.2,2097
22.5,1425
22.8,1444
23.1,1489
23.4,1674
23.7,2928
24,1551
24.3,1548
24.6,1434
24.9,1469
25.2,1397
25.5,1650
25.8,2105
26.1,1605
26.4,1508
26.7,1576
27,1684
27.3,2410
27.6,1764
27.9,2135
28.2,24005
28.5,8504
28.8,2336
29.1,1984
29.4,6119
29.7,4435
30,1769
30.3,1660
30.6,1638
30.9,1676
31.2,2040
31.5,13090
31.8,1824
32.1,1570
32.4,1642
32.7,1603
33,1611
33.3,1567
33.6,1668
33.9,6498
34.2,1709
34.5,2276
34.8,2449
35.1,2226
35.4,1502
35.7,1582
36,2079
36.3,1758
36.6,1636
36.9,1959
37.2,1813
37.5,1541
37.8,2088
38.1,1587
38.4,1741
38.7,1533
39,1764
39.3,1574
39.6,1517
39.9,1445
40.2,1457
40.5,1610
40.8,1495
41.1,1545
41.4,1439
41.7,1845
42,1618
42.3,1868
42.6,1848
42.9,4276
43.2,1526
43.5,1607
43.8,2855
44.1,1826
44.4,1555
44.7,1568
45,4345
45.3,2237
45.6,1575
45.9,1652
46.2,1550
46.5,1593
46.8,2134
47.1,1668
47.4,1681
47.7,8410
48,2033
48.3,5392
48.6,5947
48.9,1847
49.2,1736
49.5,4188
49.8,1823
50.1,2793
50.4,1665
50.7,1901
51,5008
51.3,1861
51.6,2526
51.9,3241
52.2,1877
52.5,3480
52.8,1787
53.1,2096
53.4,4480
53.7,2078
54,1609
54.3,1555
54.6,1620
54.9,1682
55.2,1890
55.5,3743
55.8,3386
56.1,1921
56.4,3246
56.7,1994
57,1623
57.3,1630
57.6,1857
57.9,2226
58.2,4043
58.5,2375
58.8,2549
59.1,1662
59.4,2500
59.7,1603
60,1557
60.3,1540
60.6,1658
60.9,1677
61.2,2624
61.5,2057
61.8,3483
62.1,1737
62.4,1784
62.7,1936
63,1768
63.3,5506
63.6,2335
63.9,1884
64.2,3125
64.5,2615
64.8,1890
65.1,1779
65.4,2361
65.7,3158
66,1680
66.3,1640
66.6,1546
66.9,1567
67.2,1656
67.5,2339
67.8,1816
68.1,3315
68.4,1940
68.7,1691
69,1866
69.3,1851
69.6,1908
69.9,1696
70.2,1768
70.5,1807
70.8,1609
71.1,1937
71.4,1613
71.7,1578
72,1585
72.3,1578
72.6,1605
72.9,1518
73.2,1595
73.5,1687
73.8,1995
74.1,1974
74.4,1761
74.7,1769
75,1670
75.3,1712
75.6,1901
75.9,2064
76.2,2713
76.5,2640
76.8,2743
77.1,1915
77.4,1763
77.7,1843
78,1838
78.3,3170
78.6,2993
78.9,2602
79.2,2468
79.5,2216
79.8,2434
80.1,2110
80.4,1880
80.7,1666
81,2476
81.3,1728
81.6,1917
81.9,2232
82.2,3170
82.5,2875
82.8,1671
83.1,1749
83.4,1700
83.7,1978
84,1853
84.3,1929
84.6,1748
84.9,1748
85.2,2396
85.5,2351
85.8,1834
86.1,1597
86.4,1621
86.7,1717
87,1730
87.3,1638
87.6,2310
87.9,1942
88.2,1692
88.5,1692
88.8,1947
89.1,1959
89.4,1808
89.7,1776
90,1678