File: data/xrd_icdd_PDF/00-060-0760 (PD3).csv
5.0066,858
5.4616,455
5.9166,347
6.3716,374
6.8266,501
7.2816,429
7.7366,189
8.1916,104
8.6466,86
9.1016,67
9.5566,66
10.0116,55
10.4666,63
10.9216,60
11.3766,79
11.8316,72
12.2866,69
12.7416,70
13.1966,66
13.6516,82
14.1066,85
14.5616,77
15.0166,87
15.4716,90
15.9266,93
16.3816,108
16.8366,95
17.2916,204
17.7466,89
18.2016,100
18.6566,97
19.1116,73
19.5666,66
20.0216,83
20.4766,86
20.9316,91
21.3866,86
21.8416,83
22.2966,74
22.7516,88
23.2066,101
23.6616,132
24.1166,94
24.5716,111
25.0266,88
25.4816,111
25.9366,103
26.3916,87
26.8466,86
27.3016,105
27.7566,118
28.2116,1132
28.6666,100
29.1216,99
29.5766,113
30.0316,136
30.4866,116
30.9416,1279
31.3966,107
31.8516,105
32.3066,105
32.7616,311
33.2166,550
33.6716,169
34.1266,188
34.5816,101
35.0366,283
35.4916,100
35.9466,80
36.4016,75
36.8566,106
37.3116,122
37.7666,106
38.2216,92
38.6766,119
39.1316,103
39.5866,81
40.0416,80
40.4966,85
40.9516,83
41.4066,100
41.8616,81
42.3166,240
42.7716,100
43.2266,101
43.6816,88
44.1366,98
44.5916,83
45.0466,85
45.5016,92
45.9566,89
46.4116,102
46.8666,106
47.3216,355
47.7766,102
48.2316,100
48.6866,117
49.1416,95
49.5966,95
50.0516,241
50.5066,103
50.9616,110
51.4166,127
51.8716,211
52.3266,112
52.7816,103
53.2366,230
53.6916,165
54.1466,99
54.6016,109
55.0566,89
55.5116,110
55.9666,310
56.4216,190
56.8766,93
57.3316,131
57.7866,99
58.2416,111
58.6966,164
59.1516,95
59.6066,135
60.0616,100
60.5166,90
60.9716,103
61.4266,112
61.8816,110
62.3366,79
62.7916,83
63.2466,102
63.7016,103
64.1566,196
64.6116,112
65.0666,87
65.5216,92
65.9766,125
66.4316,105
66.8866,95
67.3416,119
67.7966,136
68.2516,95
68.7066,114
69.1616,102
69.6166,122
70.0716,123
70.5266,102
70.9816,86
71.4366,96
71.8916,98
72.3466,115
72.8016,101
73.2566,99
73.7116,88
74.1666,94
74.6216,99
75.0766,80
75.5316,91
75.9866,99
76.4416,130
76.8966,99
77.3516,97
77.8066,93
78.2616,90
78.7166,100
79.1716,92
79.6266,97
80.0816,91
80.5366,147
80.9916,161
81.4466,109
81.9016,137
82.3566,102
82.8116,111
83.2666,247
83.7216,123
84.1766,86
84.6316,87
85.0866,90
85.5416,177
85.9966,107
86.4516,90
86.9066,94
87.3616,102
87.8166,104
88.2716,104
88.7266,94
89.1816,88
89.6366,88
90.0916,184
90.5466,96
91.0016,87
91.4566,75
91.9116,104
92.3666,152
92.8216,83
93.2766,102
93.7316,101
94.1866,119
94.6416,124
95.0966,87
95.5516,117
96.0066,93
96.4616,112
96.9166,118
97.3716,125
97.8266,92
98.2816,90
98.7366,97
99.1916,93
99.6466,102
100.1016,112
100.5566,104
101.0116,102
101.4666,103
101.9216,100
102.3766,117
102.8316,106
103.2866,116
103.7416,113
104.1966,97
104.6516,94
105.1066,97
105.5616,102
106.0166,106
106.4716,105
106.9266,97
107.3816,92
107.8366,97
108.2916,94
108.7466,100
109.2016,105
109.6566,115
110.1116,91
110.5666,99
111.0216,110
111.4766,106
111.9316,98
112.3866,90
112.8416,100
113.2966,189
113.7516,116
114.2066,117
114.6616,105
115.1166,119
115.5716,149
116.0266,121
116.4816,86
116.9366,107
117.3916,96
117.8466,96
118.3016,98
118.7566,118
119.2116,110
119.6666,114
120.1216,103
120.5766,122
121.0316,120
121.4866,118
121.9416,122
122.3966,125
122.8516,133
123.3066,131
123.7616,133
124.2166,87
124.6716,122
125.1266,110
125.5816,114
126.0366,112
126.4916,139
126.9466,116
127.4016,150
127.8566,126
128.3116,111
128.7666,109
129.2216,109
129.6766,114
130.1316,123
130.5866,130
131.0416,124
131.4966,124
131.9516,114
132.4066,110
132.8616,120
133.3166,87
133.7716,100
134.2266,123
134.6816,119
135.1366,107
135.5916,119
136.0466,115
136.5016,128
136.9566,96
137.4116,112
137.8666,99
138.3216,119
138.7766,133
139.2316,117
139.6866,104
139.9986,139