File: data/xrd_icdd_PDF/00-059-0268 (PD3).csv
5,1737
5.4,2000
5.8,1899
6.2,1717
6.6,1656
7,1555
7.4,1252
7.8,1293
8.2,1212
8.6,1171
9,1151
9.4,1050
9.8,1010
10.2,1010
10.6,1192
11,1151
11.4,929
11.8,808
12.2,747
12.6,747
13,747
13.4,727
13.8,687
14.2,808
14.6,727
15,727
15.4,715
15.8,747
16.2,687
16.6,646
17,626
17.4,586
17.8,667
18.2,606
18.6,485
19,525
19.4,545
19.8,606
20.2,566
20.6,525
21,566
21.4,667
21.8,2505
22.2,566
22.6,404
23,566
23.4,465
23.8,543
24.2,542
24.6,545
25,444
25.4,430
25.8,432
26.2,768
26.6,525
27,424
27.4,528
27.8,549
28.2,485
28.6,949
29,6121
29.4,1071
29.8,667
30.2,768
30.6,870
31,4613
31.4,1220
31.8,786
32.2,694
32.6,722
33,2650
33.4,899
33.8,826
34.2,1778
34.6,2680
35,849
35.4,734
35.8,706
36.2,929
36.6,8091
37,949
37.4,802
37.8,667
38.2,628
38.6,596
39,610
39.4,667
39.8,610
40.2,707
40.6,646
41,889
41.4,3050
41.8,1555
42.2,687
42.6,715
43,842
43.4,687
43.8,765
44.2,1273
44.6,2323
45,646
45.4,733
45.8,653
46.2,629
46.6,746
47,687
47.4,1414
47.8,719
48.2,615
48.6,670
49,681
49.4,630
49.8,671
50.2,651
50.6,656
51,707
51.4,715
51.8,617
52.2,619
52.6,622
53,645
53.4,747
53.8,949
54.2,1737
54.6,788
55,3919
55.4,1050
55.8,817
56.2,747
56.6,768
57,710
57.4,700
57.8,669
58.2,681
58.6,747
59,725
59.4,744
59.8,808
60.2,1899
60.6,889
61,586
61.4,768
61.8,747
62.2,929
62.6,908
63,779
63.4,707
63.8,587
64.2,707
64.6,874
65,984
65.4,605
65.8,656
66.2,727
66.6,856
67,1567
67.4,750
67.8,793
68.2,1411
68.6,844
69,873
69.4,869
69.8,626
70.2,1192
70.6,1111
71,1576
71.4,1838
71.8,667
72.2,869
72.6,1495
73,757
73.4,566
73.8,566
74.2,538
74.6,519
75,519
75.4,626
75.8,542
76.2,646
76.6,545
77,571
77.4,623
77.8,1050
78.2,626
78.6,424
79,465
79.4,444
79.8,505
80.2,505
80.6,646
81,606
81.4,707
81.8,1697
82.2,889
82.6,626
83,505
83.4,586
83.8,465
84.2,545
84.6,646
85,485
85.4,626
85.8,929
86.2,889
86.6,603
87,626
87.4,525
87.8,646
88.2,566
88.6,444
89,667
89.4,566
89.8,646
90.2,869
90.6,808
91,586
91.4,525
91.8,626
92.2,646
92.6,626
93,606
93.4,587
93.8,545
94.2,768
94.6,808
95,606
95.4,626
95.8,606
96.2,869
96.6,667
97,687
97.4,768
97.8,848
98.2,707
98.6,667
99,626
99.4,687
99.8,869
100.2,949
100.6,889
101,687
101.4,808
101.8,747
102.2,727
102.6,606
103,586
103.4,707
103.8,624
104.2,678
104.6,1010
105,889
105.4,889
105.8,929
106.2,1050
106.6,828
107,808
107.4,667
107.8,566
108.2,747
108.6,949
109,1091
109.4,869
109.8,768
110.2,808
110.6,707
111,1192
111.4,990
111.8,808
112.2,566
112.6,646
113,566
113.4,687
113.8,949
114.2,747
114.6,990
115,909
115.4,869
115.8,808
116.2,566
116.6,626
117,525
117.4,606
117.8,566
118.2,586
118.6,606
119,606
119.4,606
119.8,566
120.02,606