File: data/xrd_icdd_PDF/00-070-0155 (PD3).csv
10,491.667
10.24,466.667
10.48,516.667
10.72,566.667
10.96,666.667
11.2,633.333
11.44,500
11.68,416.667
11.92,491.667
12.16,425
12.4,433.333
12.64,3083.33
12.88,408.333
13.12,383.333
13.36,400
13.6,358.333
13.84,383.333
14.08,425
14.32,341.667
14.56,333.333
14.8,383.333
15.04,225
15.28,275
15.52,250
15.76,258.333
16,258.333
16.24,283.333
16.48,233.333
16.72,325
16.96,358.333
17.2,300
17.44,258.333
17.68,291.667
17.92,250
18.16,191.667
18.4,258.333
18.64,291.667
18.88,233.333
19.12,258.333
19.36,358.333
19.6,200
19.84,258.333
20.08,250
20.32,300
20.56,333.333
20.8,225
21.04,241.667
21.28,233.333
21.52,216.667
21.76,158.333
22,158.333
22.24,200
22.48,325
22.72,258.333
22.96,266.667
23.2,250
23.44,225
23.68,291.667
23.92,175
24.16,258.333
24.4,275
24.64,308.333
24.88,233.333
25.12,325
25.36,658.333
25.6,508.333
25.84,391.667
26.08,325
26.32,358.333
26.56,241.667
26.8,225
27.04,233.333
27.28,300
27.52,333.333
27.76,258.333
28,266.667
28.24,250
28.48,258.333
28.72,341.667
28.96,258.333
29.2,3583.33
29.44,491.667
29.68,325
29.92,1483.33
30.16,350
30.4,150
30.64,258.333
30.88,233.333
31.12,183.333
31.36,150
31.6,300.03
31.84,275
32.08,733.333
32.32,291.667
32.56,258.333
32.8,233.333
33.04,216.667
33.28,200
33.52,200
33.76,158.333
34,208.333
34.24,283.333
34.48,250
34.72,391.667
34.96,1241.67
35.2,15450
35.44,691.667
35.68,275
35.92,225
36.16,241.667
36.4,266.667
36.64,275
36.88,266.667
37.12,166.667
37.36,200
37.6,216.667
37.84,150
38.08,191.667
38.32,200
38.56,350
38.8,283.333
39.04,466.667
39.28,933.333
39.52,283.333
39.76,175
40,158.333
40.24,208.333
40.48,183.333
40.72,183.333
40.96,158.333
41.2,133.333
41.44,83.3333
41.68,158.333
41.92,216.667
42.16,175
42.4,175
42.64,208.333
42.88,200
43.12,150
43.36,191.667
43.6,308.333
43.84,2958.33
44.08,2808.33
44.32,325
44.56,150
44.8,183.333
45.04,133.333
45.28,175
45.52,158.333
45.76,116.667
46,133.333
46.24,166.667
46.48,158.333
46.72,158.333
46.96,133.333
47.2,141.667
47.44,75
47.68,133.333
47.92,200
48.16,166.667
48.4,158.333
48.64,108.333
48.88,191.667
49.12,325
49.36,475
49.6,141.667
49.84,100
50.08,175
50.32,158.333
50.56,258.333
50.8,116.667
51.04,175
51.28,175
51.52,341.667
51.76,541.667
52,3525
52.24,541.667
52.48,1825
52.72,233.333
52.96,133.333
53.2,208.333
53.44,216.667
53.68,975
53.92,233.333
54.16,175
54.4,208.333
54.64,225
54.88,525
55.12,700
55.36,183.333
55.6,216.667
55.84,166.667
56.08,158.333
56.32,166.667
56.56,175
56.8,75
57.04,66.6667
57.28,158.333
57.52,125
57.76,83.3333
58,125
58.24,141.667
58.48,241.667
58.72,1625
58.96,133.333
59.2,141.667
59.44,175
59.68,175
59.92,116.667
60.16,100
60.4,166.667
60.64,600
60.88,941.667
61.12,1916.67
61.36,566.667
61.6,208.333
61.84,150
62.08,83.3333
62.32,225
62.56,150
62.8,108.333
63.04,150
63.28,58.3333
63.52,100
63.76,108.333
64,191.667
64.24,4183.33
64.48,875
64.72,125
64.96,100
65.2,158.333
65.44,116.667
65.68,125
65.92,125
66.16,191.667
66.4,266.667
66.64,433.333
66.88,341.667
67.12,266.667
67.36,141.667
67.6,158.333
67.84,116.667
68.08,91.6667
68.32,133.333
68.56,141.667
68.8,116.667
69.04,116.667
69.28,166.667
69.52,150
69.76,75
70,141.667
70.24,1366.67
70.48,1316.67
70.72,166.667
70.96,58.3333
71.2,100
71.44,108.333
71.68,50
71.92,91.6667
72.16,91.6667
72.4,75
72.64,83.3333
72.88,150
73.12,116.667
73.36,108.333
73.6,83.3333
73.84,116.667
74.08,116.667
74.32,258.333
74.56,158.333
74.8,100
75.04,158.333
75.28,141.667
75.52,191.667
75.76,108.333
76,58.3333
76.24,91.6667
76.48,200
76.72,708.333
76.96,908.333
77.2,241.667
77.44,158.333
77.68,125
77.92,116.667
78.16,150
78.4,175
78.64,125
78.88,208.333
79.12,225
79.36,116.667
79.6,166.667
79.84,83.3333
80,141.667