File: data/xrd_icdd_PDF/00-061-0130 (PD3).csv
5,680
5.4,540
5.8,517
6.2,514
6.6,438
7,461
7.4,382
7.8,393
8.2,371
8.6,281
9,270
9.4,281
9.8,259
10.2,216
10.6,236
11,256
11.4,256
11.8,202
12.2,197
12.6,214
13,211
13.4,312
13.8,169
14.2,216
14.6,185
15,191
15.4,149
15.8,149
16.2,180
16.6,180
17,143
17.4,157
17.8,174
18.2,169
18.6,191
19,152
19.4,214
19.8,129
20.2,157
20.6,146
21,267
21.4,180
21.8,180
22.2,1043
22.6,191
23,192
23.4,984
23.8,624
24.2,202
24.6,832
25,753
25.4,247
25.8,216
26.2,202
26.6,236
27,466
27.4,287
27.8,278
28.2,259
28.6,476
29,249
29.4,300
29.8,680
30.2,545
30.6,8028
31,1034
31.4,1624
31.8,13409
32.2,972
32.6,623
33,1384
33.4,5887
33.8,635
34.2,905
34.6,3560
35,1742
35.4,559
35.8,4119
36.2,427
36.6,506
37,1146
37.4,747
37.8,665
38.2,1843
38.6,433
39,697
39.4,837
39.8,1180
40.2,584
40.6,309
41,292
41.4,264
41.8,624
42.2,1085
42.6,663
43,326
43.4,469
43.8,922
44.2,1012
44.6,348
45,486
45.4,1714
45.8,1270
46.2,469
46.6,697
47,399
47.4,674
47.8,747
48.2,444
48.6,337
49,320
49.4,284
49.8,584
50.2,528
50.6,495
51,2653
51.4,933
51.8,865
52.2,483
52.6,287
53,273
53.4,933
53.8,377
54.2,354
54.6,753
55,1349
55.4,910
55.8,444
56.2,377
56.6,374
57,441
57.4,384
57.8,456
58.2,394
58.6,601
59,568
59.4,635
59.8,523
60.2,517
60.6,691
61,427
61.4,874
61.8,2602
62.2,1737
62.6,686
63,742
63.4,1523
63.8,1978
64.2,511
64.6,469
65,422
65.4,840
65.8,674
66.2,1399
66.6,1236
67,652
67.4,365
67.8,601
68.2,371
68.6,337
69,450
69.4,843
69.8,663
70.2,562
70.6,438
71,556
71.4,466
71.8,447
72.2,565
72.6,506
73,542
73.4,523
73.8,646
74.2,646
74.6,455
75,495
75.4,641
75.8,1276
76.2,568
76.6,500
77,312
77.4,343
77.8,334
78.2,641
78.6,320
79,436
79.4,503
79.8,441
80.2,483
80.6,393
81,303
81.4,399
81.8,303
82.2,318
82.6,348
83,371
83.4,545
83.8,540
84.2,545
84.6,562
85,433
85.4,388
85.8,483
86.2,424
86.6,399
87,377
87.4,483
87.8,483
88.2,489
88.6,601
89,674
89.4,686
89.8,413
90.2,416
90.6,584
91,545
91.4,489
91.8,433
92.2,444
92.6,399
93,441
93.4,450
93.8,481
94.2,382
94.6,329
95,362
95.4,523
95.8,405
96.2,511
96.6,489
97,489
97.4,388
97.8,320
98.2,340
98.6,326
99,351
99.4,391
99.8,427
100.2,509
100.6,632
101,607
101.4,582
101.8,967
102.2,1340
102.6,984
103,545
103.4,422
103.8,635
104.2,483
104.6,540
105,469
105.4,405
105.8,461
106.2,551
106.6,509
107,489
107.4,410
107.8,354
108.2,365
108.6,388
109,388
109.4,422
109.8,416
110.2,377
110.6,433
111,478
111.4,478
111.8,410
112.2,436
112.6,478
113,481
113.4,416
113.8,422
114.2,481
114.6,478
115,371
115.4,422
115.8,416
116.2,472
116.6,523
117,514
117.4,506
117.8,433
118.2,464
118.6,500
119,452
119.4,430
119.8,500
120.02,450