File: data/xrd_icdd_PDF/00-060-0213 (PD3).csv
15,1238
15.32,1273
15.64,1199
15.96,1250
16.28,1236
16.6,1223
16.92,1188
17.24,1238
17.56,1210
17.88,1287
18.2,1200
18.52,1240
18.84,1178
19.16,1182
19.48,1178
19.8,1169
20.12,1251
20.44,1176
20.76,1189
21.08,1139
21.4,1131
21.72,1137
22.04,1209
22.36,1317
22.68,2066
23,1208
23.32,1481
23.64,2387
23.96,1131
24.28,1120
24.6,1001
24.92,1109
25.24,1078
25.56,1074
25.88,1084
26.2,1143
26.52,1200
26.84,1476
27.16,5149
27.48,1285
27.8,1176
28.12,1129
28.44,1079
28.76,1117
29.08,1102
29.4,1078
29.72,1159
30.04,1162
30.36,1104
30.68,1111
31,1198
31.32,1125
31.64,1142
31.96,1184
32.28,1258
32.6,1548
32.92,1391
33.24,1205
33.56,1149
33.88,1171
34.2,1178
34.52,1378
34.84,1669
35.16,3940
35.48,1577
35.8,2356
36.12,18846
36.44,4654
36.76,2297
37.08,1712
37.4,2337
37.72,20788
38.04,2628
38.36,1788
38.68,1702
39,3686
39.32,3551
39.64,1452
39.96,1462
40.28,1366
40.6,1303
40.92,1285
41.24,1326
41.56,1325
41.88,1225
42.2,1290
42.52,1334
42.84,1350
43.16,1381
43.48,1407
43.8,1695
44.12,4131
44.44,3186
44.76,2686
45.08,3091
45.4,3766
45.72,1482
46.04,1836
46.36,1312
46.68,1192
47,1212
47.32,1251
47.64,1297
47.96,1968
48.28,1242
48.6,1201
48.92,1152
49.24,1196
49.56,1191
49.88,1190
50.2,1565
50.52,1197
50.84,1160
51.16,1183
51.48,1237
51.8,1183
52.12,1160
52.44,1325
52.76,1589
53.08,1177
53.4,1369
53.72,1466
54.04,1253
54.36,1238
54.68,1350
55,1996
55.32,2340
55.64,1654
55.96,2466
56.28,2668
56.6,1461
56.92,1321
57.24,1181
57.56,1268
57.88,1245
58.2,1311
58.52,1445
58.84,1800
59.16,1897
59.48,1543
59.8,1398
60.12,1450
60.44,3322
60.76,2376
61.08,1453
61.4,2477
61.72,1598
62.04,1293
62.36,1307
62.68,1240
63,1298
63.32,1888
63.64,1901
63.96,1289
64.28,1249
64.6,1302
64.92,1759
65.24,3010
65.56,1505
65.88,1565
66.2,1274
66.52,1289
66.84,1224
67.16,1202
67.48,1370
67.8,1785
68.12,2541
68.44,1407
68.76,1300
69.08,1342
69.4,1317
69.72,1373
70.04,1306
70.36,1362
70.68,1585
71,3277
71.32,1808
71.64,1383
71.96,1386
72.28,1246
72.6,1353
72.92,1300
73.24,1357
73.56,1445
73.88,2293
74.2,2230
74.52,1505
74.84,1290
75.16,1351
75.48,1381
75.8,1550
76.12,2553
76.44,1875
76.76,1812
77.08,2327
77.4,1766
77.72,1565
78.04,1360
78.36,1342
78.68,1229
79,1245
79.32,1440
79.64,1341
79.96,1301
80.28,1455
80.6,2186
80.92,1572
81.24,1321
81.56,1351
81.88,1506
82.2,1960
82.52,2076
82.84,1495
83.16,1982
83.48,1669
83.8,1417
84.12,1851
84.44,1463
84.76,1283
85.08,1230
85.4,1234
85.72,1273
86.04,1210
86.36,1259
86.68,1233
87,1226
87.32,1172
87.64,1168
87.96,1181
88.28,1291
88.6,1290
88.92,1337
89.24,1444
89.56,1436
89.88,1382
90.2,1255
90.52,1236
90.84,1174
91.16,1314
91.48,1269
91.8,1192
92.12,1198
92.44,1262
92.76,1348
93.08,1261
93.4,1358
93.72,1334
94.04,1443
94.36,1251
94.68,1274
95,1465
95.32,1402
95.64,1477
95.96,1413
96.28,1573
96.6,1688
96.92,1463
97.24,1342
97.56,1407
97.88,1397
98.2,1319
98.52,1240
98.84,1275
99.16,1405
99.48,2092
99.8,1802
100.12,1603
100.44,1876
100.76,1745
101.08,1729
101.4,1580
101.72,1322
102.04,1359
102.36,1279
102.68,1294
103,1418
103.32,1406
103.64,1467
103.96,1802
104.28,1583
104.6,1388
104.92,1605
105.24,1497
105.56,1536
105.88,1507
106.2,1330
106.52,1308
106.84,1345
106.96,1281