File: data/xrd_icdd_PDF/00-056-1203 (PD3).csv
4.77366,4824.49
5.07366,4711.12
5.37366,4694.76
5.67366,4604.38
5.97366,4676.38
6.27366,4534.37
6.57366,4593.46
6.87366,4546.42
7.17366,4498.71
7.47366,4480.43
7.77366,4447.59
8.07366,4444.64
8.37366,4450.56
8.67366,4448.57
8.97366,4443.24
9.27366,4427.26
9.57366,4468.35
9.87366,4433.77
10.17366,4362.18
10.47366,4415.61
10.77366,4431.46
11.07366,4375.95
11.37366,4414.47
11.67366,4428.36
11.97366,4389.09
12.27366,4361.86
12.57366,4210.74
12.87366,4402.68
13.17366,4420.25
13.47366,4316.21
13.77366,4257.79
14.07366,4366.73
14.37366,4322.45
14.67366,4383.74
14.97366,4404.72
15.27366,4380.99
15.57366,4408.98
15.87366,4394.29
16.17366,4420.88
16.47366,4289.58
16.77366,4443.95
17.07366,4394.38
17.37366,4289.75
17.67366,4286.75
17.97366,4302.15
18.27366,4432.07
18.57366,4271.93
18.87366,5367.74
19.17366,4378.37
19.47366,4251.36
19.77366,4392.83
20.07366,4320.84
20.37366,4324.95
20.67366,4298.15
20.97366,4386.28
21.27366,4363.15
21.57366,4401.61
21.87366,4400.95
22.17366,4324.56
22.47366,4319.93
22.77366,4248.73
23.07366,4400.2
23.37366,4302.61
23.67366,4350.1
23.97366,6152.09
24.27366,4346.25
24.57366,4440.47
24.87366,8015.74
25.17366,4349.71
25.47366,4259.88
25.77366,4348.65
26.07366,4439.6
26.37366,4290.58
26.67366,4333.98
26.97366,5388.88
27.27366,4350.51
27.57366,4356.42
27.87366,4395.3
28.17366,4256.43
28.47366,4445.3
28.77366,4416.45
29.07366,4294.26
29.37366,4322.19
29.67366,4367.63
29.97366,4304.29
30.27366,4645.1
30.57366,4376.94
30.87366,5137.32
31.17366,4588.91
31.47366,25533.7
31.77366,4902.51
32.07366,4579.85
32.37366,8014.93
32.67366,4561.76
32.97366,4356.17
33.27366,4447.19
33.57366,4281.26
33.87366,4435.79
34.17366,5408.2
34.47366,4596.31
34.77366,5392.55
35.07366,4961.82
35.37366,11840.2
35.67366,4596.12
35.97366,4374.23
36.27366,4285.52
36.57366,4233.48
36.87366,4982.96
37.17366,4138.78
37.47366,4382.26
37.77366,9087.06
38.07366,4462.86
38.37366,8224.89
38.67366,4603.44
38.97366,13425
39.27366,4551.89
39.57366,4340.4
39.87366,4333.76
40.17366,4509.55
40.47366,4584.84
40.77366,15525.7
41.07366,4469.89
41.37366,4371.73
41.67366,4399.02
41.97366,5576.17
42.27366,4302.79
42.57366,5001.64
42.87366,4340.39
43.17366,6070.87
43.47366,4186.59
43.77366,4164.15
44.07366,4594.66
44.37366,4300.53
44.67366,4288.94
44.97366,4371.71
45.27366,6528.67
45.57366,4448.55
45.87366,4441.32
46.17366,4441
46.47366,4532.56
46.77366,5070.09
47.07366,4387.38
47.37366,4308.6
47.67366,4360.41
47.97366,4401.92
48.27366,4378.74
48.57366,4512.21
48.87366,4447.85
49.17366,4886.2
49.47366,6185.2
49.77366,6291.25
50.07366,4431.17
50.37366,4552.15
50.67366,4421.69
50.97366,4535.42
51.27366,4403.63
51.57366,4449.3
51.87366,4292.06
52.17366,4372.08
52.47366,4483.45
52.77366,4357.81
53.07366,4341.42
53.37366,4653.72
53.67366,7281
53.97366,4447.49
54.27366,4301.07
54.57366,4366.63
54.87366,4578.16
55.17366,4606.94
55.47366,4618.52
55.77366,4635.34
56.07366,4922.4
56.37366,4408.27
56.67366,4258.26
56.97366,4275.56
57.27366,6355.65
57.57366,4255.32
57.87366,4343.34
58.17366,4305.37
58.47366,4176.84
58.77366,4641.11
59.07366,4625.58
59.37366,4555.69
59.67366,4379.14
59.97366,4243.06
60.27366,4192.4
60.57366,4293.673
60.87366,4215.15
61.17366,4275.16
61.47366,4339.2
61.77366,4541.29
62.07366,4494.43
62.37366,5515.57
62.67366,4713.32
62.97366,6353.25
63.27366,4368.7
63.57366,4490.39
63.87366,4341.17
64.17366,4454.52
64.47366,6706.14
64.77366,4899.92
65.07366,4379.53
65.37366,4338.31
65.67366,4329.82
65.97366,4356.39
66.27366,4700.48
66.57366,5018.45
66.87366,4405.45
67.17366,5034.24
67.47366,4402.31
67.77366,5209.58
68.07366,4860.23
68.37366,4388.52
68.67366,4286.92
68.97366,4621.48
69.27366,4584.82
69.57366,4366.54
69.87366,4328.72
70.17366,4518.5
70.47366,5171.22
70.77366,4495.44
71.07366,4350.51
71.37366,4331.96
71.67366,4299.65
71.97366,4342.29
72.27366,4331.5
72.57366,4372.01
72.87366,4300.36
73.17366,4394.14
73.47366,4743.2
73.77366,5770.71
74.07366,4521.94
74.37366,4471.36
74.67366,5356.86
74.97366,4578.53
75.27366,4568.5
75.57366,5066.77
75.87366,4521.84
76.17366,4712
76.47366,4712.4
76.77366,4397.35
77.07366,4593.81
77.37366,5000.1
77.67366,4502.37
77.97366,4657.68
78.27366,4796.75
78.57366,4538.8
78.87366,5221.52
79.17366,4561.77
79.47366,4421.83
79.77366,4435.69
80.07366,4761.6
80.37366,4494.46
80.67366,5061.59
80.97366,5154.81
81.27366,4248.75
81.57366,4384.04
81.87366,4948.2
82.17366,4627.8
82.47366,4401.08
82.77366,4299.14
83.07366,4972.62
83.37366,4759.97
83.67366,4514.76
83.97366,4615.58
84.27366,4266.96
84.57366,4397.86
84.87366,4411.89
85.17366,4480.09
85.47366,4475.99
85.77366,5083.13
86.07366,4482.183
86.37366,4757.07
86.67366,4560.05
86.97366,4676.89
87.27366,4415.52
87.57366,5153.56
87.87366,4838.89
88.17366,4465.63
88.47366,4428.59
88.77366,4332.28
89.07366,4324.29
89.37366,4389.21
89.67366,4353.72
89.79366,4314.69