File: data/xrd_icdd_PDF/00-062-0163 (PD3).csv
10.0188,2875
10.2988,2816
10.5788,2767
10.8588,2721
11.1388,2662
11.4188,2608
11.6988,2689
11.9788,2459
12.2588,2400
12.5388,2439
12.8188,2468
13.0988,2629
13.3788,2427
13.6588,2410
13.9388,2360
14.2188,2359
14.4988,2507
14.7788,2696
15.0588,2572
15.3388,2531
15.6188,2488
15.8988,2504
16.1788,2456
16.4588,2541
16.7388,2532
17.0188,2770
17.2988,2946
17.5788,2730
17.8588,2629
18.1388,2820
18.4188,2703
18.6988,2691
18.9788,2814
19.2588,2898
19.5388,2856
19.8188,3715
20.0988,4765
20.3788,2955
20.6588,3051
20.9388,2944
21.2188,3024
21.4988,2929
21.7788,3271
22.0588,3605
22.3388,6051
22.6188,3440
22.8988,12159
23.1788,3442
23.4588,2813
23.7388,2729
24.0188,2765
24.2988,2659
24.5788,2585
24.8588,2604
25.1388,2524
25.4188,2680
25.6988,3196
25.9788,9683
26.2588,40666
26.5388,5201
26.8188,3052
27.0988,2312
27.3788,2325
27.6588,4621
27.9388,3345
28.2188,2671
28.4988,12323
28.7788,6961
29.0588,2451
29.3388,2399
29.6188,4626
29.8988,7249
30.1788,31734
30.4588,3376
30.7388,2028
31.0188,1798
31.2988,1790
31.5788,1785
31.8588,1826
32.1388,4813
32.4188,3806
32.6988,1829
32.9788,1724
33.2588,2105
33.5388,3372
33.8188,3176
34.0988,1716
34.3788,2244
34.6588,9456
34.9388,8014
35.2188,4042
35.4988,1844
35.7788,2258
36.0588,2817
36.3388,2897
36.6188,1447
36.8988,1251
37.1788,1269
37.4588,1991
37.7388,3880
38.0188,1618
38.2988,1284
38.5788,1623
38.8588,6241
39.1388,4334
39.4188,6527
39.6988,12224
39.9788,2049
40.2588,1181
40.5388,1403
40.8188,1113
41.0988,1218
41.3788,1200
41.6588,2615
41.9388,1581
42.2188,2367
42.4988,1276
42.7788,1154
43.0588,1545
43.3388,1945
43.6188,2404
43.8988,1574
44.1788,2457
44.4588,1237
44.7388,1194
45.0188,1300
45.2988,3313
45.5788,3307
45.8588,3313
46.1388,2475
46.4188,2192
46.6988,2706
46.9788,2354
47.2588,1434
47.5388,2821
47.8188,1315
48.0988,1023
48.3788,970
48.6588,1072
48.9388,2174
49.2188,2415
49.4988,3391
49.7788,6292
50.0588,2170
50.3388,1624
50.6188,1699
50.8988,1389
51.1788,2004
51.4588,1361
51.7388,1368
52.0188,1257
52.2988,1247
52.5788,1284
52.8588,2586
53.1388,3895
53.4188,3868
53.6988,2469
53.9788,3438
54.2588,2262
54.5388,1704
54.8188,1196
55.0988,2169
55.3788,1273
55.6588,987
55.9388,1067
56.2188,1141
56.4988,1225
56.7788,2424
57.0588,2331
57.3388,1350
57.6188,1799
57.8988,1142
58.1788,988
58.4588,1067
58.7388,1408
59.0188,2608
59.2988,2287
59.5788,4201
59.8588,2833
60.1388,2787
60.4188,1823
60.6988,1470
60.9788,1735
61.2588,1918
61.5388,1867
61.8188,2212
62.0988,1664
62.3788,1754
62.6588,1974
62.9388,2192
63.2188,1494
63.4988,1498
63.7788,1433
64.0588,1500
64.3388,1016
64.6188,1002
64.8988,1021
65.1788,1084
65.4588,1592
65.7388,1670
66.0188,1174
66.2988,1025
66.5788,1025
66.8588,976
67.1388,897
67.4188,970
67.6988,1007
67.9788,1147
68.2588,2069
68.5388,1334
68.8188,1635
69.0988,3813
69.3788,2074
69.6588,1942
69.9388,1674
70.2188,1597
70.4988,1768
70.7788,2001
71.0588,1940
71.3388,2460
71.6188,1362
71.8988,1051
72.1788,1117
72.4588,1025
72.7388,888
73.0188,1028
73.2988,1278
73.5788,1033
73.8588,823
74.1388,921
74.4188,1111
74.6988,962
74.9788,860
75.2588,840
75.5388,876
75.8188,1105
76.0988,1372
76.3788,1190
76.6588,1097
76.9388,1596
77.2188,1493
77.4988,946
77.7788,850
78.0588,764
78.3388,719
78.6188,875
78.8988,1058
79.1788,1308
79.4588,1066
79.7388,861
80.0188,841
80.2988,846
80.5788,755
80.8588,855
81.1388,1146
81.4188,905
81.6988,664
81.9788,677
82.2588,852
82.5388,916
82.8188,991
83.0988,1214
83.3788,1973
83.6588,1676
83.9388,1283
84.2188,1209
84.4988,1121
84.7788,958
85.0588,827
85.3388,761
85.6188,813
85.8988,711
86.1788,829
86.4588,1131
86.7388,1162
87.0188,909
87.2988,827
87.5788,778
87.8588,913
88.1388,805
88.4188,822
88.6988,775
88.9788,696
89.2588,709
89.5388,670
89.8188,867
90.0388,951