File: data/xrd_icdd_PDF/00-057-0355 (PD3).csv
6,6130
6.32,5798
6.64,5600
6.96,5331
7.28,5456
7.6,5123
7.92,5365
8.24,4966
8.56,4630
8.88,4386
9.2,4429
9.52,4464
9.84,4357
10.16,4307
10.48,4738
10.8,4269
11.12,4184
11.44,4083
11.76,3928
12.08,3925
12.4,3917
12.72,3978
13.04,3934
13.36,3830
13.68,3802
14,3846
14.32,3978
14.64,3571
14.96,3934
15.28,3872
15.6,3683
15.92,3720
16.24,3507
16.56,3614
16.88,3685
17.2,3597
17.52,3797
17.84,7088
18.16,5490
18.48,3784
18.8,3555
19.12,3533
19.44,3438
19.76,3349
20.08,3261
20.4,3358
20.72,3440
21.04,5403
21.36,3442
21.68,3440
22,3186
22.32,3224
22.64,3064
22.96,3366
23.28,5330
23.6,3365
23.92,3168
24.24,3056
24.56,3290
24.88,3222
25.2,3490
25.52,13834
25.84,4891
26.16,3242
26.48,2986
26.8,2954
27.12,2986
27.44,3054
27.76,3275
28.08,4584
28.4,3499
28.72,4454
29.04,3784
29.36,3182
29.68,2941
30,2995
30.32,3122
30.64,4646
30.96,5925
31.28,3090
31.6,7630
31.92,3421
32.24,2846
32.56,2851
32.88,2898
33.2,2838
33.52,2813
33.84,2861
34.16,2997
34.48,4147
34.8,3118
35.12,7942
35.44,3165
35.76,3558
36.08,27571
36.4,3429
36.72,3339
37.04,29368
37.36,3496
37.68,2989
38,2877
38.32,2949
38.64,6557
38.96,2957
39.28,2813
39.6,2784
39.92,2816
40.24,2800
40.56,3733
40.88,5742
41.2,3088
41.52,4466
41.84,2746
42.16,2792
42.48,2786
42.8,2794
43.12,4290
43.44,2846
43.76,3123
44.08,2864
44.4,2890
44.72,2776
45.04,2869
45.36,3016
45.68,9091
46,2882
46.32,2869
46.64,2768
46.96,2872
47.28,3520
47.6,10864
47.92,3387
48.24,2893
48.56,2878
48.88,6496
49.2,14906
49.52,6075
49.84,4864
50.16,2822
50.48,2819
50.8,2696
51.12,2741
51.44,2774
51.76,2859
52.08,5928
52.4,2842
52.72,5550
53.04,4222
53.36,2694
53.68,2744
54,2578
54.32,2610
54.64,2659
54.96,2626
55.28,4795
55.6,3067
55.92,3226
56.24,8154
56.56,2845
56.88,5325
57.2,3046
57.52,2587
57.84,2525
58.16,2978
58.48,3101
58.8,2790
59.12,3197
59.44,2538
59.76,3845
60.08,6096
60.4,3770
60.72,2677
61.04,2888
61.36,2808
61.68,2830
62,2525
62.32,2464
62.64,2653
62.96,4203
63.28,4963
63.6,2592
63.92,2533
64.24,2589
64.56,2589
64.88,2491
65.2,2477
65.52,2621
65.84,2642
66.16,4322
66.48,2965
66.8,4578
67.12,2621
67.44,2627
67.76,2741
68.08,2766
68.4,3630
68.72,2691
69.04,2730
69.36,5003
69.68,3907
70,3258
70.32,2541
70.64,2544
70.96,2494
71.28,2538
71.6,2699
71.92,3339
72.24,2683
72.56,3478
72.88,2510
73.2,2571
73.52,2851
73.84,2634
74.16,2941
74.48,3235
74.8,2675
75.12,2578
75.44,3648
75.76,5717
76.08,3176
76.4,3243
76.72,2662
77.04,2504
77.36,3059
77.68,2541
78,3725
78.32,2728
78.64,2776
78.96,3290
79.28,2718
79.6,3491
79.92,2910
80.24,2549
80.56,2406
80.88,3403
81.2,4565
81.52,3322
81.84,2517
82.16,2442
82.48,2342
82.8,3285
83.12,2659
83.44,2597
83.76,2605
84.08,2773
84.4,3118
84.72,2850
85.04,2448
85.36,2405
85.68,2283
86,2648
86.32,3994
86.64,2699
86.96,2806
87.28,3078
87.6,3638
87.92,3605
88.24,2755
88.56,2395
88.88,2296
89.2,2382
89.52,2885
89.84,2878
90.16,4034
90.48,3034
90.8,2389
91.12,2576
91.44,2536
91.76,2472
92.08,2440
92.4,2254
92.72,2405
93.04,2414
93.36,2866
93.68,2691
94,2451
94.32,2342
94.64,2706
94.96,2547
95.28,3154
95.6,2909
95.92,4064
96.24,3480
96.56,2523
96.88,2584
97.2,2506
97.52,2406
97.84,2491
98.16,2374
98.48,2440
98.8,3669
99.12,3904
99.44,2824
99.76,2344
100,2469