File: data/xrd_icdd_PDF/00-066-0216 (PD3).csv
8,2178
8.31001,2166
8.62001,2159
8.93002,2178
9.24003,2223
9.55003,2193
9.86004,2153
10.17005,2162
10.48005,2190
10.79006,2170
11.10007,2100
11.41008,2161
11.72008,2104
12.03009,2104
12.3401,2085
12.6501,2086
12.96011,2078
13.27012,2125
13.58012,2079
13.89013,2026
14.20014,2015
14.51014,2045
14.82015,2058
15.13016,2033
15.44016,2009
15.75017,2014
16.06018,1979
16.37018,2012
16.68019,2011
16.9902,2038
17.3002,2219
17.61021,2038
17.92022,1954
18.23023,2000
18.54023,1943
18.85024,1950
19.16025,1977
19.47025,1970
19.78026,1887
20.09027,1902
20.40027,1882
20.71028,1879
21.02029,1917
21.33029,2107
21.6403,1909
21.95031,1856
22.26031,1778
22.57032,1686
22.88033,1714
23.19033,1698
23.50034,1707
23.81035,1678
24.12035,1626
24.43036,1622
24.74037,1613
25.05038,1601
25.36038,1607
25.67039,1578
25.9804,1604
26.2904,1651
26.60041,1834
26.91042,4283
27.22042,15031
27.53043,1952
27.84044,1697
28.15044,1611
28.46045,1576
28.77046,1507
29.08046,1499
29.39047,1482
29.70048,1452
30.01048,1475
30.32049,1445
30.6305,1453
30.9405,1442
31.25051,1422
31.56052,1423
31.87053,1388
32.18053,1396
32.49054,1366
32.80055,1356
33.11055,1355
33.42056,1349
33.73057,1360
34.04057,1372
34.35058,1356
34.66059,1354
34.97059,1366
35.2806,1412
35.59061,1376
35.90061,1455
36.21062,1564
36.52063,1366
36.83063,1322
37.14064,1316
37.45065,1291
37.76065,1329
38.07066,1314
38.38067,1303
38.69068,1329
39.00068,1308
39.31069,1289
39.6207,1295
39.9307,1268
40.24071,1291
40.55072,1258
40.86072,1262
41.17073,1294
41.48074,1269
41.79074,1292
42.10075,1275
42.41076,1280
42.72076,1377
43.03077,1310
43.34078,1281
43.65078,1274
43.96079,1290
44.2708,1348
44.5808,1566
44.89081,5148
45.20082,3391
45.51083,1554
45.82083,1304
46.13084,1278
46.44085,1255
46.75085,1260
47.06086,1243
47.37087,1230
47.68087,1220
47.99088,1236
48.30089,1240
48.61089,1305
48.9209,1237
49.23091,1213
49.54091,1233
49.85092,1214
50.16093,1221
50.47093,1189
50.78094,1226
51.09095,1190
51.40095,1220
51.71096,1231
52.02097,1245
52.33098,1245
52.64098,1307
52.95099,1517
53.261,5743
53.571,2141
53.88101,1381
54.19102,1267
54.50102,1216
54.81103,1196
55.12104,1183
55.43104,1173
55.74105,1202
56.05106,1179
56.36106,1156
56.67107,1153
56.98108,1162
57.29108,1162
57.60109,1168
57.9111,1149
58.2211,1174
58.53111,1155
58.84112,1175
59.15113,1168
59.46113,1137
59.77114,1141
60.08115,1141
60.39115,1131
60.70116,1176
61.01117,1143
61.32117,1169
61.63118,1134
61.94119,1167
62.25119,1121
62.5612,1151
62.87121,1140
63.18121,1181
63.49122,1156
63.80123,1246
64.11123,1168
64.42124,1152
64.73125,1172
65.04125,1198
65.35126,1475
65.66127,1822
65.97128,1226
66.28128,1177
66.59129,1168
66.9013,1140
67.2113,1137
67.52131,1150
67.83132,1162
68.14132,1174
68.45133,1215
68.76134,1153
69.07134,1159
69.38135,1154
69.69136,1139
70.00136,1152
70.31137,1172
70.62138,1146
70.93138,1170
71.24139,1167
71.5514,1197
71.8614,1275
72.17141,2077
72.48142,1877
72.79143,1313
73.10143,1207
73.41144,1181
73.72145,1169
74.03145,1169
74.34146,1150
74.65147,1161
74.96147,1150
75.27148,1147
75.58149,1183
75.89149,1167
76.2015,1170
76.51151,1152
76.82151,1176
77.13152,1171
77.44153,1181
77.75153,1153
78.06154,1161
78.37155,1146
78.68155,1185
78.99156,1150
79.30157,1149
79.61158,1156
79.92158,1148
80.23159,1143
80.5416,1188
80.8516,1176
81.16161,1190
81.47162,1239
81.78162,1201
82.09163,1178
82.40164,1248
82.71164,1398
83.02165,3763
83.33166,1698
83.64166,1286
83.95167,1256
84.26168,1203
84.57168,1187
84.88169,1197
85.1917,1187
85.50171,1222
85.81171,1203
86.12172,1196
86.43173,1180
86.74173,1176
87.05174,1183
87.36175,1186
87.67175,1170
87.98176,1185
88.29177,1190
88.60177,1243
88.91178,1275
89.22179,2072
89.53179,1792
89.8418,1296
90.15181,1197
90.46181,1197
90.77182,1182
91.08183,1156
91.39183,1165
91.70184,1174
92.01185,1154
92.32186,1175
92.63186,1158
92.94187,1185
93.25188,1154
93.56188,1190
93.87189,1201
94.1819,1198
94.4919,1175
94.80191,1172
95.11192,1168
95.42192,1152
95.73193,1147
96.04194,1189
96.35194,1172
96.66195,1168
96.97196,1184
97.28196,1158
97.59197,1176
97.90198,1180
98.21198,1205
98.52199,1183
98.832,1182
99.14201,1206
99.45201,1242
99.76202,1690
100.002,1794