File: data/xrd_icdd_PDF/00-052-1687 (PD3).csv
5,1347
5.46,1206
5.92,1107
6.38,1125
6.84,1146
7.3,1092
7.76,1068
8.22,1020
8.68,1002
9.14,1008
9.6,996
10.06,945
10.52,963
10.98,978
11.44,969
11.9,1071
12.36,15774
12.82,1089
13.28,1056
13.74,972
14.2,930
14.66,975
15.12,879
15.58,918
16.04,933
16.5,906
16.96,915
17.42,3654
17.88,873
18.34,879
18.8,816
19.26,822
19.72,822
20.18,870
20.64,852
21.1,939
21.56,1272
22.02,885
22.48,870
22.94,831
23.4,840
23.86,777
24.32,882
24.78,16101
25.24,816
25.7,783
26.16,774
26.62,819
27.08,903
27.54,1602
28,1722
28.46,885
28.92,870
29.38,870
29.84,1047
30.3,3093
30.76,1947
31.22,945
31.68,882
32.14,882
32.6,909
33.06,6369
33.52,834
33.98,747
34.44,789
34.9,822
35.36,6561
35.82,825
36.28,744
36.74,780
37.2,969
37.66,12984
38.12,852
38.58,723
39.04,714
39.5,663
39.96,699
40.42,651
40.88,639
41.34,705
41.8,1821
42.26,693
42.72,705
43.18,732
43.64,14517
44.1,828
44.56,699
45.02,732
45.48,5664
45.94,759
46.4,669
46.86,759
47.32,7398
47.78,765
48.24,675
48.7,867
49.16,5496
49.62,795
50.08,714
50.54,771
51,1314
51.46,693
51.92,711
52.38,1251
52.84,816
53.3,657
53.76,639
54.22,786
54.68,648
55.14,654
55.6,750
56.06,699
56.52,633
56.98,702
57.44,1323
57.9,774
58.36,879
58.82,6348
59.28,1137
59.74,816
60.2,1023
60.66,1530
61.12,705
61.58,678
62.04,873
62.5,678
62.96,711
63.42,5226
63.88,708
64.34,714
64.8,2097
65.26,750
65.72,639
66.18,630
66.64,630
67.1,675
67.56,900
68.02,1179
68.48,639
68.94,633
69.4,726
69.86,621
70.32,663
70.78,1680
71.24,642
71.7,732
72.16,2625
72.62,651
73.08,681
73.54,1542
74,633
74.46,630
74.92,1428
75.38,660
75.84,879
76.3,4083
76.76,669
77.22,630
77.68,684
78.14,624
78.6,660
79.06,879
79.52,609
79.98,723
80.44,777
80.9,645
81.36,1329
81.82,879
82.28,621
82.74,603
83.2,600
83.66,645
84.12,4092
84.58,681
85.04,576
85.5,555
85.96,594
86.42,657
86.88,1053
87.34,606
87.8,555
88.26,552
88.72,555
89.18,591
89.64,987
90.1,564
90.56,603
91.02,792
91.48,600
91.94,1077
92.4,912
92.86,579
93.32,1092
93.78,606
94.24,573
94.7,1734
95.16,597
95.62,591
96.08,837
96.54,609
97,582
97.46,804
97.92,618
98.38,591
98.84,609
99.3,597
99.76,633
100.22,759
100.68,588
101.14,546
101.6,555
102.06,564
102.52,687
102.98,876
103.44,609
103.9,810
104.36,1167
104.82,606
105.28,606
105.74,669
106.2,576
106.66,693
107.12,864
107.58,630
108.04,1461
108.5,2136
108.96,585
109.42,597
109.88,558
110.34,573
110.8,642
111.26,699
111.72,573
112.18,606
112.64,567
113.1,582
113.56,621
114.02,621
114.48,618
114.94,570
115.4,627
115.86,600
116.32,618
116.78,1137
117.24,918
117.7,576
118.16,645
118.62,600
119.08,591
119.54,642
120,624
120.46,600
120.92,582
121.38,651
121.84,654
122.3,603
122.76,1545
123.22,798
123.68,603
124.14,573
124.6,624
125.06,636
125.52,717
125.98,4140
126.44,1332
126.9,747
127.36,720
127.82,729
128.28,852
128.74,672
129.2,1161
129.66,753
130.12,744
130.58,663
131.04,1167
131.5,684
131.96,633
132.42,603
132.88,732
133.34,627
133.8,621
134.26,603
134.72,627
135.18,636
135.64,606
136.1,669
136.56,1899
137.02,759
137.48,702
137.94,645
138.4,963
138.86,654
139.32,777
139.78,648
140,636