File: data/xrd_icdd_PDF/00-062-0305 (PD3).csv
10,4338
10.28,4616
10.56,4670
10.84,4708
11.12,4554
11.4,4494
11.68,4508
11.96,4510
12.24,4472
12.52,4436
12.8,4506
13.08,4374
13.36,4278
13.64,4298
13.92,4288
14.2,4252
14.48,4418
14.76,4204
15.04,4274
15.32,4078
15.6,4152
15.88,4134
16.16,4154
16.44,4186
16.72,4192
17,4036
17.28,4130
17.56,4014
17.84,4074
18.12,4156
18.4,3992
18.68,3894
18.96,4046
19.24,4002
19.52,4006
19.8,3986
20.08,4032
20.36,4108
20.64,4084
20.92,5122
21.2,12480
21.48,4524
21.76,3946
22.04,3900
22.32,3856
22.6,3782
22.88,3736
23.16,3662
23.44,3742
23.72,3672
24,3692
24.28,4488
24.56,9492
24.84,4042
25.12,3718
25.4,3632
25.68,3666
25.96,3600
26.24,3716
26.52,3508
26.8,3598
27.08,3504
27.36,3508
27.64,3570
27.92,3464
28.2,3330
28.48,3466
28.76,3360
29.04,3378
29.32,3468
29.6,3470
29.88,3482
30.16,3464
30.44,3454
30.72,3422
31,3552
31.28,3422
31.56,3422
31.84,3440
32.12,3482
32.4,3350
32.68,3510
32.96,3442
33.24,3588
33.52,3622
33.8,3436
34.08,3664
34.36,3576
34.64,4142
34.92,8984
35.2,7618
35.48,3870
35.76,3758
36.04,3630
36.32,3578
36.6,3562
36.88,3620
37.16,3518
37.44,3568
37.72,3536
38,3494
38.28,3472
38.56,3598
38.84,3524
39.12,3702
39.4,3466
39.68,3576
39.96,3818
40.24,4084
40.52,4200
40.8,4882
41.08,10434
41.36,59708
41.64,10584
41.92,4944
42.2,4266
42.48,4092
42.76,4444
43.04,7026
43.32,24108
43.6,6286
43.88,4112
44.16,3896
44.44,3746
44.72,3602
45,3558
45.28,3662
45.56,3568
45.84,3534
46.12,3524
46.4,3488
46.68,3534
46.96,3568
47.24,3466
47.52,3400
47.8,3450
48.08,3416
48.36,3434
48.64,3438
48.92,3348
49.2,3484
49.48,3472
49.76,3386
50.04,3610
50.32,4828
50.6,4290
50.88,3550
51.16,3464
51.44,3436
51.72,3446
52,3446
52.28,3574
52.56,3528
52.84,3510
53.12,3400
53.4,3334
53.68,3386
53.96,3316
54.24,3376
54.52,3356
54.8,3422
55.08,3642
55.36,4726
55.64,3552
55.92,3427
56.2,3633
56.48,3473
56.76,4226
57.04,4225
57.32,3534
57.6,3396
57.88,3302
58.16,3302
58.44,3262
58.72,3328
59,3460
59.28,3370
59.56,3396
59.84,3420
60.12,3394
60.4,3312
60.68,3288
60.96,3370
61.24,3386
61.52,3328
61.8,3344
62.08,3498
62.36,3624
62.64,4070
62.92,6310
63.2,4168
63.48,3454
63.76,3370
64.04,3366
64.32,3326
64.6,3406
64.88,3498
65.16,3522
65.44,3530
65.72,3506
66,3494
66.28,3642
66.56,3622
66.84,4590
67.12,11056
67.4,8880
67.68,4280
67.96,3646
68.24,3608
68.52,3428
68.8,3382
69.08,3314
69.36,3426
69.64,3406
69.92,3360
70.2,3454
70.48,3420
70.76,3456
71.04,3398
71.32,3286
71.6,3422
71.88,3274
72.16,3390
72.44,3414
72.72,3466
73,3462
73.28,3560
73.56,3804
73.84,4956
74.12,9878
74.4,6118
74.68,3828
74.96,3642
75.24,3442
75.52,3480
75.8,3364
76.08,3328
76.36,3364
76.64,3316
76.92,3388
77.2,3446
77.48,3468
77.76,3590
78.04,3918
78.32,3690
78.6,3516
78.88,3352
79.16,3402
79.44,3858
79.72,3542
80,3302
80.28,3284
80.56,3378
80.84,3396
81.12,3370
81.4,3370
81.68,3292
81.96,3326
82.24,3372
82.52,3180
82.8,3388
83.08,3162
83.36,3338
83.64,3270
83.92,3356
84.2,3366
84.48,3596
84.76,4026
85.04,3716
85.32,3382
85.6,3350
85.88,3450
86.16,3272
86.44,3394
86.72,3282
87,3292
87.28,3260
87.56,3420
87.84,3404
88.12,3680
88.4,4426
88.68,5456
88.96,4476
89.24,3772
89.52,4014
89.8,5568
89.98,5356