File: data/xrd_icdd_PDF/00-063-0587 (PD3).csv
4.9978,2400
5.42221,1650
5.84662,1163
6.27103,984
6.69544,886
7.11985,700
7.54426,632
7.96867,670
8.39308,608
8.81749,688
9.2419,730
9.66631,743
10.09072,881
10.51513,849
10.93954,934
11.36395,977
11.78836,970
12.21277,1025
12.63718,1009
13.06159,936
13.486,880
13.91041,995
14.33482,839
14.75923,848
15.18364,825
15.60805,696
16.03246,751
16.45687,695
16.88128,680
17.30569,674
17.7301,634
18.15451,589
18.57892,602
19.00333,540
19.42774,582
19.85215,607
20.27656,510
20.70097,535
21.12538,480
21.54979,515
21.9742,500
22.39861,463
22.82302,543
23.24743,466
23.67184,451
24.09625,439
24.52066,469
24.94507,475
25.36948,507
25.79389,480
26.2183,527
26.64271,773
27.06712,10022
27.49153,836
27.91594,13036
28.34035,851
28.76476,557
29.18917,510
29.61358,472
30.03799,457
30.4624,464
30.88681,403
31.31122,437
31.73563,402
32.16004,419
32.58445,423
33.00886,537
33.43327,2370
33.85768,1019
34.28209,453
34.7065,387
35.13091,382
35.55532,385
35.97973,409
36.40414,756
36.82855,938
37.25296,465
37.67737,955
38.10178,484
38.52619,346
38.9506,292
39.37501,310
39.79942,380
40.22383,437
40.64824,279
41.07265,279
41.49706,307
41.92147,305
42.34588,265
42.77029,303
43.1947,287
43.61911,264
44.04352,469
44.46793,545
44.89234,269
45.31675,272
45.74116,261
46.16557,301
46.58998,1129
47.01439,492
47.4388,515
47.86321,421
48.28762,299
48.71203,237
49.13644,257
49.56085,241
49.98526,248
50.40967,204
50.83408,214
51.25849,481
51.6829,277
52.10731,248
52.53172,233
52.95613,276
53.38054,409
53.80495,968
54.22936,272
54.65377,262
55.07818,272
55.50259,348
55.927,216
56.35141,235
56.77582,233
57.20023,497
57.62464,437
58.04905,240
58.47346,224
58.89787,257
59.32228,203
59.74669,263
60.1711,564
60.59551,323
61.01992,799
61.44433,832
61.86874,501
62.29315,287
62.71756,234
63.14197,226
63.56638,264
63.99079,522
64.4152,248
64.83961,206
65.26402,241
65.68843,298
66.11284,208
66.53725,240
66.96166,308
67.38607,192
67.81048,160
68.23489,184
68.6593,182
69.08371,288
69.50812,205
69.93253,185
70.35694,225
70.78135,202
71.20576,284
71.63017,225
72.05458,224
72.47899,190
72.9034,201
73.32781,155
73.75222,222
74.17663,335
74.60104,200
75.02545,168
75.44986,146
75.87427,153
76.29868,165
76.72309,207
77.1475,156
77.57191,190
77.99632,197
78.42073,172
78.84514,161
79.26955,164
79.69396,183
80.11837,193
80.54278,199
80.96719,225
81.3916,211
81.81601,153
82.24042,161
82.66483,202
83.08924,164
83.51365,175
83.93806,164
84.36247,182
84.78688,270
85.21129,212
85.6357,223
86.06011,285
86.48452,174
86.90893,174
87.33334,182
87.75775,142
88.18216,148
88.60657,177
89.03098,199
89.45539,190
89.8798,216
90.30421,171
90.72862,182
91.15303,170
91.57744,213
92.00185,204
92.42626,169
92.85067,141
93.27508,148
93.69949,153
94.1239,174
94.54831,182
94.97272,174
95.39713,275
95.82154,257
96.24595,215
96.67036,263
97.09477,220
97.51918,228
97.94359,170
98.368,176
98.79241,181
99.21682,165
99.64123,156
100.066,155
100.49,141
100.914,156
101.339,171
101.763,150
102.188,150
102.6121,138
103.037,146
103.461,131
103.885,149
104.31,138
104.734,157
105.159,174
105.583,157
106.007,171
106.432,182
106.8562,163
107.281,168
107.705,209
108.129,185
108.554,172
108.978,158
109.403,160
109.827,180
110.251,203
110.676,193
111.1003,172
111.525,181
111.949,179
112.374,155
112.798,127
113.222,153
113.647,172
114.071,164
114.496,153
114.92,161
115.3444,181
115.769,139
116.193,174
116.618,162
117.042,158
117.466,200
117.891,188
118.315,189
118.74,174
119.164,194
119.5885,183
120.013,175
120.437,177
120.862,168
121.286,166
121.711,179
122.135,169
122.559,186
122.984,197
123.408,193
123.8326,180
124.257,189
124.681,180
125.106,163
125.53,163
125.955,187
126.379,171
126.803,182
127.228,162
127.652,176
128.0767,194
128.501,170
128.926,168
129.35,187
129.774,164
129.976,0