File: data/xrd_icdd_PDF/00-062-0719 (PD3).csv
10,5214
10.32,4893
10.64,4885
10.96,4719
11.28,4477
11.6,4265
11.92,4543
12.24,4563
12.56,4586
12.88,4359
13.2,4142
13.52,4235
13.84,4160
14.16,3943
14.48,3995
14.8,3891
15.12,3901
15.44,3889
15.76,3721
16.08,3691
16.4,3710
16.72,4284
17.04,3735
17.36,3986
17.68,15013
18,3740
18.32,3651
18.64,3487
18.96,3637
19.28,5839
19.6,3873
19.92,3571
20.24,3691
20.56,3565
20.88,3587
21.2,3388
21.52,3375
21.84,3939
22.16,4103
22.48,6967
22.8,3566
23.12,3505
23.44,3835
23.76,3678
24.08,3719
24.4,21049
24.72,3272
25.04,3611
25.36,3285
25.68,16407
26,3513
26.32,3535
26.64,3204
26.96,3084
27.28,3095
27.6,3221
27.92,3270
28.24,3401
28.56,3527
28.88,3372
29.2,3242
29.52,4996
29.84,24160
30.16,3321
30.48,2981
30.8,3262
31.12,3342
31.44,26405
31.76,3135
32.08,3169
32.4,2992
32.72,7663
33.04,3823
33.36,3211
33.68,11201
34,3837
34.32,8540
34.64,3410
34.96,3934
35.28,28419
35.6,4139
35.92,8444
36.24,2629
36.56,2605
36.88,2869
37.2,3403
37.52,2783
37.84,2790
38.16,3344
38.48,15700
38.8,3635
39.12,3538
39.44,3331
39.76,25965
40.08,3268
40.4,2885
40.72,2719
41.04,2858
41.36,2788
41.68,2827
42,3324
42.32,2929
42.64,3046
42.96,5657
43.28,3101
43.6,2856
43.92,2966
44.24,2913
44.56,2798
44.88,2864
45.2,11485
45.52,8092
45.84,6227
46.16,2804
46.48,3449
46.8,18551
47.12,3230
47.44,2755
47.76,11488
48.08,3305
48.4,2818
48.72,3754
49.04,2737
49.36,2659
49.68,3844
50,4219
50.32,2944
50.64,2802
50.96,2587
51.28,2704
51.6,4036
51.92,4318
52.24,4075
52.56,3161
52.88,9292
53.2,7511
53.52,2589
53.84,3155
54.16,5634
54.48,2988
54.8,6034
55.12,7303
55.44,3255
55.76,5147
56.08,2960
56.4,2704
56.72,2517
57.04,2359
57.36,2328
57.68,2590
58,3102
58.32,2609
58.64,5046
58.96,4140
59.28,2512
59.6,2474
59.92,2355
60.24,2617
60.56,2727
60.88,4310
61.2,3012
61.52,6439
61.84,6789
62.16,3647
62.48,3190
62.8,3303
63.12,7094
63.44,9211
63.76,3748
64.08,3284
64.4,17628
64.72,4122
65.04,3173
65.36,3709
65.68,3649
66,6823
66.32,3126
66.64,4515
66.96,3111
67.28,2907
67.6,2914
67.92,3149
68.24,2960
68.56,3073
68.88,5491
69.2,3058
69.52,4869
69.84,5373
70.16,2873
70.48,2863
70.8,2624
71.12,4016
71.44,4238
71.76,3027
72.08,4621
72.4,6755
72.72,3199
73.04,5516
73.36,5261
73.68,3409
74,4425
74.32,3076
74.64,3095
74.96,2789
75.28,2741
75.6,2543
75.92,2947
76.24,3307
76.56,4695
76.88,3272
77.2,3295
77.52,2757
77.84,2612
78.16,3216
78.48,4032
78.8,3369
79.12,2688
79.44,5471
79.76,5583
80.08,3418
80.4,3929
80.72,4447
81.04,2681
81.36,3058
81.68,2273
82,2619
82.32,2788
82.64,2600
82.96,2440
83.28,3034
83.6,3592
83.92,3456
84.24,4644
84.56,3554
84.88,2516
85.2,2607
85.52,3215
85.84,2755
86.16,3908
86.48,3467
86.8,2623
87.12,2506
87.44,2778
87.76,2488
88.08,2747
88.4,4002
88.72,3447
89.04,2810
89.36,3264
89.68,2900
90,2249
90.32,2240
90.64,2936
90.96,3610
91.28,3179
91.6,3101
91.92,2947
92.24,2409
92.56,2435
92.88,3319
93.2,2991
93.52,3048
93.84,2979
94.16,3132
94.48,3150
94.8,2754
95.12,2420
95.44,3100
95.76,3782
96.08,2817
96.4,2457
96.72,2782
97.04,3925
97.36,3221
97.68,4189
98,3944
98.32,3112
98.64,2380
98.96,4161
99.28,3266
99.6,2628
99.92,2598
100,2434