File: data/xrd_icdd_PDF/00-063-0313 (PD3).csv
5,1102
5.4,815
5.8,694
6.2,650
6.6,551
7,540
7.4,507
7.8,419
8.2,430
8.6,430
9,364
9.4,380
9.8,353
10.2,298
10.6,334
11,298
11.4,253
11.8,270
12.2,260
12.6,231
13,226
13.4,176
13.8,198
14.2,209
14.6,209
15,204
15.4,226
15.8,198
16.2,149
16.6,209
17,198
17.4,143
17.8,154
18.2,149
18.6,160
19,198
19.4,160
19.8,121
20.2,132
20.6,231
21,143
21.4,143
21.8,121
22.2,171
22.6,116
23,193
23.4,127
23.8,176
24.2,187
24.6,430
25,176
25.4,165
25.8,143
26.2,160
26.6,143
27,143
27.4,253
27.8,1565
28.2,292
28.6,218
29,153
29.4,248
29.8,1609
30.2,242
30.6,264
31,584
31.4,430
31.8,173
32.2,507
32.6,516
33,501
33.4,1519
33.8,446
34.2,452
34.6,970
35,7235
35.4,2468
35.8,363
36.2,337
36.6,230
37,386
37.4,1300
37.8,1631
38.2,1400
38.6,485
39,380
39.4,204
39.8,132
40.2,209
40.6,231
41,397
41.4,353
41.8,364
42.2,176
42.6,276
43,242
43.4,320
43.8,220
44.2,231
44.6,187
45,209
45.4,198
45.8,325
46.2,193
46.6,287
47,231
47.4,220
47.8,182
48.2,309
48.6,253
49,441
49.4,276
49.8,395
50.2,343
50.6,1311
51,336
51.4,386
51.8,187
52.2,320
52.6,248
53,204
53.4,529
53.8,292
54.2,286
54.6,236
55,276
55.4,639
55.8,490
56.2,474
56.6,452
57,1234
57.4,380
57.8,331
58.2,452
58.6,325
59,391
59.4,700
59.8,463
60.2,209
60.6,231
61,309
61.4,485
61.8,336
62.2,562
62.6,738
63,678
63.4,534
63.8,331
64.2,893
64.6,562
65,441
65.4,364
65.8,242
66.2,242
66.6,369
67,782
67.4,727
67.8,331
68.2,209
68.6,209
69,264
69.4,309
69.8,397
70.2,551
70.6,683
71,331
71.4,220
71.8,375
72.2,430
72.6,694
73,634
73.4,364
73.8,441
74.2,1003
74.6,342
75,276
75.4,226
75.8,220
76.2,331
76.6,331
77,176
77.4,193
77.8,154
78.2,209
78.6,204
79,270
79.4,452
79.8,325
80.2,215
80.6,270
81,242
81.4,242
81.8,292
82.2,209
82.6,242
83,220
83.4,287
83.8,287
84.2,369
84.6,518
85,364
85.4,276
85.8,253
86.2,259
86.6,292
87,287
87.4,309
87.8,380
88.2,419
88.6,424
89,231
89.4,270
89.8,419
90.2,397
90.6,242
91,264
91.4,276
91.8,248
92.2,231
92.6,298
93,364
93.4,375
93.8,386
94.2,276
94.6,375
95,391
95.4,287
95.8,259
96.2,325
96.6,375
97,353
97.4,287
97.8,298
98.2,281
98.6,413
99,375
99.4,408
99.8,529
100.2,562
100.6,364
101,303
101.4,364
101.8,452
102.2,342
102.6,226
103,220
103.4,287
103.8,220
104.2,303
104.6,320
105,358
105.4,364
105.8,435
106.2,331
106.6,248
107,204
107.4,253
107.8,226
108.2,281
108.6,276
109,325
109.4,220
109.8,264
110.2,331
110.6,364
111,512
111.4,463
111.8,353
112.2,397
112.6,397
113,314
113.4,364
113.8,298
114.2,309
114.6,353
115,309
115.4,231
115.8,242
116.2,248
116.6,353
117,298
117.4,320
117.8,364
118.2,320
118.6,347
119,331
119.4,298
119.8,264
120.02,353