File: data/xrd_icdd_PDF/00-067-0137 (PD3).csv
9.65786,218.396
10.10786,215.321
10.55786,214.937
11.00786,211.799
11.45786,212.532
11.90786,205.888
12.35786,199.974
12.80786,199.903
13.25786,201.755
13.70786,198.816
14.15786,201.498
14.60786,198.208
15.05786,195.216
15.50786,199.368
15.95786,192.2736
16.40786,191.875
16.85786,190.777
17.30786,190.276
17.75786,195.005
18.20786,209.7425
18.65786,313.6247
19.10786,211.272
19.55786,190.951
20.00786,184.584
20.45786,185.435
20.90786,179.923
21.35786,177.145
21.80786,181.931
22.25786,190.2742
22.70786,178.178
23.15786,188.461
23.60786,178.647
24.05786,183.3225
24.50786,176.047
24.95786,178.3807
25.40786,179.19
25.85786,177.25
26.30786,181.802
26.75786,183.419
27.20786,181.508
27.65786,192.002
28.10786,224.713
28.55786,927.292
29.00786,770.937
29.45786,223.812
29.90786,182.6369
30.35786,167.175
30.80786,173.5
31.25786,179.392
31.70786,181.298
32.15786,167.873
32.60786,169.945
33.05786,174.3412
33.50786,175.483
33.95786,232.346
34.40786,249.613
34.85786,173.837
35.30786,171.037
35.75786,171.7787
36.20786,169.144
36.65786,168.249
37.10786,173.151
37.55786,326.984
38.00786,306.29
38.45786,204.992
38.90786,495.34
39.35786,1204.84
39.80786,1500.97
40.25786,479.628
40.70786,187.286
41.15786,171.355
41.60786,166.942
42.05786,171.808
42.50786,171.525
42.95786,182.056
43.40786,371.021
43.85786,172.343
44.30786,167.854
44.75786,185.675
45.20786,465.603
45.65786,577.438
46.10786,177.02
46.55786,196.261
47.00786,1421.9
47.45786,391.6455
47.90786,171.439
48.35786,170.715
48.80786,247.077
49.25786,578.96
49.70786,163.776
50.15786,147.643
50.60786,146.271
51.05786,142.083
51.50786,141.493
51.95786,154.082
52.40786,143.655
52.85786,196.204
53.30786,150.783
53.75786,151.64
54.20786,386.852
54.65786,185.789
55.10786,144.152
55.55786,144.568
56.00786,181.868
56.45786,366.159
56.90786,153.365
57.35786,161.096
57.80786,846.142
58.25786,302.104
58.70786,150.317
59.15786,160.045
59.60786,330.264
60.05786,148.692
60.50786,149.158
60.95786,147.157
61.40786,146.1095
61.85786,145.225
62.30786,148.197
62.75786,150.8155
63.20786,145.155
63.65786,153.114
64.10786,170.367
64.55786,891.587
65.00786,324.115
65.45786,161.131
65.90786,147.099
66.35786,145.4917
66.80786,149.161
67.25786,184.421
67.70786,348.052
68.15786,154.535
68.60786,155.737
69.05786,613.616
69.50786,197.461
69.95786,149.779
70.40786,373.638
70.85786,678.807
71.30786,211.708
71.75786,177.11
72.20786,211.163
72.65786,145.112
73.10786,144.999
73.55786,154.166
74.00786,346.157
74.45786,314.179
74.90786,197.317
75.35786,224.634
75.80786,220.404
76.25786,1823.89
76.70786,211.915
77.15786,160.706
77.60786,227.736
78.05786,501.749
78.50786,160.513
78.95786,163.641
79.40786,625.864
79.85786,163.538
80.30786,155.5959
80.75786,498.302
81.20786,154.674
81.65786,145.288
82.10786,600.535
82.55786,163.4016
83.00786,140.783
83.45786,138.701
83.90786,149.067
84.35786,596.357
84.80786,154.683
85.25786,135.045
85.70786,191.6424
86.15786,234.33
86.60786,141.721
87.05786,146.27
87.50786,276.271
87.95786,285.796
88.40786,146.518
88.85786,134.753
89.30786,135.691
89.75786,143.82
90.20786,363.018
90.65786,767.449
91.10786,289.5336
91.55786,145.215
92.00786,143.7512
92.45786,137.057
92.90786,137.529
93.35786,135.298
93.80786,139.651
94.25786,135.707
94.70786,146.906
95.15786,372.191
95.60786,151.943
96.05786,183.8897
96.50786,141.357
96.95786,142.0888
97.40786,185.618
97.85786,150.001
98.30786,148.7018
98.75786,188.472
99.20786,1043.12
99.65786,188.067
100.108,151.721
100.558,283.499
101.008,151.067
101.458,140.796
101.908,147.99
102.358,150.131
102.808,146.213
103.258,140.092
103.708,141.956
104.158,148.612
104.608,155.519
105.058,391.584
105.508,186.547
105.958,180.319
106.408,169.679
106.858,154.295
107.308,170.55
107.758,574.795
108.208,252.561
108.658,454.737
109.108,414.424
109.558,334.348
110.008,172.528
110.458,557.465
110.908,165.625
111.358,200.761
111.808,148.551
112.258,163.435
112.708,160.527
113.158,151.947
113.608,152.094
114.058,172.127
114.508,154.1863
114.958,152.0191
115.408,153.023
115.858,159.7327
116.308,189.876
116.758,818.662
117.208,340.68
117.658,172.391
118.108,172.1145
118.558,331.115
119.008,173.98
119.458,176.277
119.908,221.816
120.358,403.343
120.808,169.173
121.258,173.043
121.708,399.166
122.158,325.328
122.608,173.836
123.058,156.459
123.508,183.99
123.958,157.976
124.408,154.882
124.858,154.082
125.308,158.711
125.758,179.224
126.208,606.223
126.658,195.858
127.108,232.43
127.558,441.301
128.008,475.692
128.458,183.332
128.908,168.28
129.358,164.61
129.708,161.174