File: data/xrd_icdd_PDF/00-065-0436 (PD3).csv
5,83
5.4,66
5.8,58
6.2,73
6.6,81
7,71
7.4,93
7.8,64
8.2,78
8.6,95
9,63
9.4,60
9.8,81
10.2,102
10.6,60
11,94
11.4,62
11.8,99
12.2,94
12.6,86
13,82
13.4,90
13.8,79
14.2,94
14.6,89
15,97
15.4,107
15.8,99
16.2,91
16.6,99
17,101
17.4,89
17.8,92
18.2,114
18.6,112
19,102
19.4,109
19.8,117
20.2,251
20.6,317
21,145
21.4,279
21.8,163
22.2,490
22.6,402
23,147
23.4,118
23.8,124
24.2,101
24.6,77
25,92
25.4,93
25.8,115
26.2,69
26.6,85
27,89
27.4,108
27.8,107
28.2,115
28.6,112
29,144
29.4,147
29.8,187
30.2,390
30.6,2330
31,943
31.4,1155
31.8,237
32.2,169
32.6,120
33,126
33.4,117
33.8,141
34.2,135
34.6,157
35,661
35.4,323
35.8,170
36.2,169
36.6,314
37,5218
37.4,468
37.8,167
38.2,146
38.6,127
39,118
39.4,118
39.8,122
40.2,145
40.6,186
41,286
41.4,1407
41.8,1653
42.2,3749
42.6,466
43,400
43.4,997
43.8,8185
44.2,570
44.6,283
45,250
45.4,433
45.8,2458
46.2,245
46.6,174
47,137
47.4,141
47.8,372
48.2,123
48.6,108
49,108
49.4,154
49.8,256
50.2,132
50.6,366
51,169
51.4,125
51.8,113
52.2,111
52.6,78
53,96
53.4,114
53.8,110
54.2,84
54.6,103
55,183
55.4,118
55.8,116
56.2,104
56.6,112
57,115
57.4,147
57.8,135
58.2,142
58.6,352
59,762
59.4,172
59.8,244
60.2,2128
60.6,280
61,159
61.4,148
61.8,156
62.2,464
62.6,258
63,240
63.4,1221
63.8,498
64.2,541
64.6,257
65,364
65.4,232
65.8,136
66.2,138
66.6,125
67,123
67.4,135
67.8,181
68.2,186
68.6,236
69,1842
69.4,269
69.8,146
70.2,134
70.6,123
71,129
71.4,157
71.8,147
72.2,194
72.6,1173
73,184
73.4,153
73.8,185
74.2,570
74.6,235
75,333
75.4,276
75.8,157
76.2,159
76.6,145
77,132
77.4,224
77.8,132
78.2,150
78.6,312
79,843
79.4,169
79.8,140
80.2,114
80.6,133
81,171
81.4,161
81.8,255
82.2,539
82.6,552
83,545
83.4,467
83.8,173
84.2,140
84.6,105
85,141
85.4,405
85.8,327
86.2,137
86.6,121
87,144
87.4,128
87.8,138
88.2,165
88.6,159
89,118
89.4,130
89.8,140
90.2,172
90.6,205
91,149
91.4,165
91.8,720
92.2,178
92.6,139
93,139
93.4,124
93.8,121
94.2,129
94.6,133
95,137
95.4,153
95.8,245
96.2,951
96.6,309
97,165
97.4,153
97.8,168
98.2,207
98.6,167
99,195
99.4,159
99.8,127
100.2,128
100.6,117
101,115
101.4,135
101.8,169
102.2,206
102.6,130
103,120
103.4,188
103.8,165
104.2,482
104.6,149
105,145
105.4,115
105.8,152
106.2,113
106.6,128
107,174
107.4,210
107.8,444
108.2,232
108.6,147
109,126
109.4,132
109.8,161
110.2,113
110.6,142
111,161
111.4,233
111.8,659
112.2,198
112.6,128
113,187
113.4,130
113.8,129
114.2,444
114.6,224
115,175
115.4,381
115.8,178
116.2,129
116.6,161
117,221
117.4,378
117.8,178
118.2,154
118.6,244
119,250
119.4,151
119.8,111
120,117