File: data/xrd_icdd_PDF/00-062-0119 (PD3).csv
7,8422
7.35,8336
7.7,8349
8.05,8348
8.4,8325
8.75,8289
9.1,8089
9.45,8081
9.8,8010
10.15,8075
10.5,7860
10.85,8047
11.2,7810
11.55,7767
11.9,7563
12.25,7561
12.6,7534
12.95,7491
13.3,7449
13.65,7386
14,7369
14.35,7458
14.7,7476
15.05,7549
15.4,7255
15.75,7337
16.1,7217
16.45,7227
16.8,7087
17.15,7087
17.5,6966
17.85,6966
18.2,7138
18.55,7025
18.9,6864
19.25,6986
19.6,6980
19.95,6869
20.3,6901
20.65,6879
21,7043
21.35,6734
21.7,6697
22.05,6790
22.4,6841
22.75,6857
23.1,6612
23.45,6691
23.8,6768
24.15,6525
24.5,6634
24.85,6488
25.2,6335
25.55,6377
25.9,6561
26.25,19849
26.6,6651
26.95,6415
27.3,6180
27.65,6223
28,6514
28.35,6132
28.7,6202
29.05,7686
29.4,6534
29.75,6262
30.1,6032
30.45,6591
30.8,7108
31.15,10549
31.5,6134
31.85,6785
32.2,6545
32.55,13946
32.9,11682
33.25,7012
33.6,6196
33.95,5953
34.3,5943
34.65,5845
35,5797
35.35,5835
35.7,5710
36.05,5847
36.4,5948
36.75,12455
37.1,6060
37.45,5770
37.8,5766
38.15,5666
38.5,5778
38.85,5601
39.2,5743
39.55,5717
39.9,5804
40.25,5600
40.6,5604
40.95,5792
41.3,5576
41.65,5615
42,5599
42.35,5584
42.7,5624
43.05,5652
43.4,5844
43.75,5645
44.1,5811
44.45,14789
44.8,6343
45.15,5855
45.5,5576
45.85,5661
46.2,5654
46.55,5827
46.9,5570
47.25,5629
47.6,5456
47.95,5362
48.3,5308
48.65,5522
49,5439
49.35,6128
49.7,6124
50.05,5890
50.4,5607
50.75,11593
51.1,5700
51.45,5330
51.8,5423
52.15,5664
52.5,6772
52.85,5373
53.2,5245
53.55,5194
53.9,5468
54.25,5370
54.6,5294
54.95,5247
55.3,5382
55.65,5220
56,5605
56.35,13606
56.7,5557
57.05,5449
57.4,5157
57.75,5115
58.1,5126
58.45,5202
58.8,5093
59.15,5115
59.5,5847
59.85,5114
60.2,5371
60.55,5142
60.9,5191
61.25,5156
61.6,4916
61.95,5147
62.3,5021
62.65,4988
63,5022
63.35,4946
63.7,4946
64.05,4908
64.4,5043
64.75,7362
65.1,4927
65.45,4925
65.8,4835
66.15,4835
66.5,4785
66.85,4875
67.2,4903
67.55,4899
67.9,4760
68.25,4881
68.6,5663
68.95,5928
69.3,4957
69.65,4763
70,4935
70.35,4981
70.7,4724
71.05,5042
71.4,4749
71.75,4859
72.1,4597
72.45,4906
72.8,4669
73.15,4706
73.5,5399
73.85,4858
74.2,4944
74.55,5889
74.9,4788
75.25,4584
75.6,4667
75.95,4578
76.3,4617
76.65,4771
77,4985
77.35,4876
77.7,4615
78.05,4763
78.4,4558
78.75,4428
79.1,4319
79.45,4283
79.8,4434
80.15,5098
80.5,4504
80.85,4499
81.2,4473
81.55,4399
81.9,4372
82.25,4276
82.6,4306
82.95,4345
83.3,4340
83.65,4309
84,4522
84.35,4351
84.7,4312
85.05,4416
85.4,4356
85.75,4550
86.1,4289
86.45,4676
86.8,4589
87.15,4431
87.5,4252
87.85,4551
88.2,4208
88.55,4115
88.9,4105
89.25,3979
89.6,4132
89.95,4052
90.3,4017
90.65,4132
91,4724
91.35,4303
91.7,4016
92.05,3938
92.4,4023
92.75,3959
93.1,3882
93.45,3965
93.8,4230
94.15,3967
94.5,4198
94.85,4050
95.2,3813
95.55,3724
95.9,3869
96.25,3831
96.6,3716
96.95,3747
97.3,3788
97.65,3797
98,3781
98.35,4092
98.7,3703
99.05,3796
99.4,3642
99.75,3582
100.1,3560
100.45,3788
100.8,3468
101.15,3511
101.5,3411
101.85,3532
102.2,3667
102.55,3602
102.9,3320
103.25,3444
103.6,3568
103.95,3307
104.3,3448
104.65,3405
105,3384
105.35,3278
105.7,3298
106.05,3235
106.4,3237
106.75,3131
107.1,3097
107.45,3111
107.8,3522
108.15,3037
108.5,2897
108.85,2758
109.2,2781
109.55,2789
109.9,2620
109.99,2746