File: data/xrd_icdd_PDF/00-056-1356 (PD3).csv
5,3555
5.4,3558
5.8,3524
6.2,3633
6.6,3409
7,3513
7.4,3407
7.8,3320
8.2,3357
8.6,3302
9,3188
9.4,3103
9.8,3023
10.2,3128
10.6,2965
11,2909
11.4,2821
11.8,2799
12.2,2726
12.6,2686
13,2649
13.4,2674
13.8,2530
14.2,2516
14.6,2439
15,2462
15.4,2448
15.8,2405
16.2,2360
16.6,2386
17,10807
17.4,2335
17.8,2192
18.2,2213
18.6,2121
19,2055
19.4,2072
19.8,2027
20.2,2017
20.6,2050
21,1994
21.4,2493
21.8,1986
22.2,1845
22.6,1910
23,1849
23.4,1842
23.8,1738
24.2,1736
24.6,3973
25,1731
25.4,1713
25.8,1642
26.2,1618
26.6,1641
27,2386
27.4,1548
27.8,1520
28.2,1484
28.6,1496
29,1437
29.4,1490
29.8,1816
30.2,16851
30.6,1488
31,1363
31.4,1321
31.8,1363
32.2,1338
32.6,1259
33,1316
33.4,1280
33.8,1343
34.2,3009
34.6,1362
35,1266
35.4,1269
35.8,2688
36.2,2246
36.6,1290
37,1233
37.4,1209
37.8,1185
38.2,1236
38.6,2125
39,1753
39.4,1143
39.8,1329
40.2,2941
40.6,1101
41,1131
41.4,1134
41.8,1122
42.2,1156
42.6,1393
43,1137
43.4,1038
43.8,1393
44.2,1091
44.6,1120
45,1050
45.4,1057
45.8,1123
46.2,1039
46.6,1028
47,1067
47.4,1081
47.8,1115
48.2,1278
48.6,992
49,1124
49.4,2179
49.8,1009
50.2,1080
50.6,3884
51,1096
51.4,1028
51.8,990
52.2,1570
52.6,1084
53,988
53.4,957
53.8,2716
54.2,1066
54.6,1034
55,995
55.4,1133
55.8,1249
56.2,1024
56.6,1052
57,1017
57.4,955
57.8,968
58.2,1101
58.6,1219
59,2043
59.4,1010
59.8,993
60.2,983
60.6,938
61,1033
61.4,1670
61.8,992
62.2,944
62.6,2853
63,1023
63.4,906
63.8,913
64.2,1052
64.6,959
65,946
65.4,1084
65.8,1071
66.2,961
66.6,920
67,921
67.4,1064
67.8,959
68.2,1192
68.6,909
69,919
69.4,1066
69.8,929
70.2,948
70.6,887
71,952
71.4,988
71.8,885
72.2,1102
72.6,911
73,881
73.4,1098
73.8,906
74.2,919
74.6,1100
75,1048
75.4,915
75.8,1015
76.2,951
76.6,1241
77,926
77.4,1036
77.8,998
78.2,928
78.6,919
79,934
79.4,861
79.8,1230
80.2,1250
80.6,856
81,856
81.4,919
81.8,897
82.2,1076
82.6,1393
83,989
83.4,1009
83.8,1062
84.2,962
84.6,890
85,896
85.4,959
85.8,901
86.2,1048
86.6,1328
87,971
87.4,864
87.8,844
88.2,852
88.6,1035
89,855
89.4,882
89.8,991
90.2,916
90.6,828
91,828
91.4,871
91.8,858
92.2,792
92.6,795
93,842
93.4,986
93.8,995
94.2,859
94.6,855
95,885
95.4,801
95.8,779
96.2,848
96.6,1043
97,859
97.4,905
97.8,1075
98.2,817
98.6,815
99,826
99.4,805
99.8,861
100.2,955
100.6,847
101,778
101.4,868
101.8,900
102.2,808
102.6,854
103,804
103.4,748
103.8,797
104.2,838
104.6,787
105,817
105.4,812
105.8,762
106.2,870
106.6,872
107,863
107.4,803
107.8,787
108.2,870
108.6,781
109,830
109.4,734
109.8,761
110.2,767
110.6,734
111,701
111.4,750
111.8,738
112.2,725
112.6,725
113,750
113.4,815
113.8,713
114.2,684
114.6,700
115,757
115.4,698
115.8,673
116.2,701
116.6,700
117,688
117.4,686
117.8,725
118.2,627
118.6,688
119,702
119.4,683
119.8,667
120,671