File: data/xrd_icdd_PDF/00-062-0134 (PD3).csv
5.023,2088
5.342,2197
5.661,2268
5.98,2309
6.299,2257
6.618,2265
6.937,2215
7.256,2221
7.575,2218
7.894,2262
8.213,2284
8.532,2352
8.851,2347
9.17,2375
9.489,2341
9.808,2258
10.127,2226
10.446,2258
10.765,2331
11.084,2270
11.403,2228
11.722,2233
12.041,2187
12.36,2279
12.679,2299
12.998,2464
13.317,2504
13.636,2666
13.955,2541
14.274,2636
14.593,2551
14.912,2707
15.231,2925
15.55,2930
15.869,2975
16.188,2971
16.507,2932
16.826,2932
17.145,2880
17.464,2965
17.783,3019
18.102,3097
18.421,3137
18.74,3195
19.059,3160
19.378,3106
19.697,3097
20.016,3110
20.335,3272
20.654,3234
20.973,3276
21.292,3324
21.611,3242
21.93,3309
22.249,3273
22.568,3436
22.887,5647
23.206,3333
23.525,3363
23.844,3452
24.163,3554
24.482,3497
24.801,3464
25.12,3462
25.439,3450
25.758,3523
26.077,3570
26.396,3567
26.715,3648
27.034,3592
27.353,3580
27.672,3668
27.991,3631
28.31,3715
28.629,3737
28.948,6171
29.267,4223
29.586,3778
29.905,3816
30.224,3837
30.543,3844
30.862,3812
31.181,4696
31.5,4696
31.819,4049
32.138,4107
32.457,4042
32.776,4064
33.095,4013
33.414,4045
33.733,9738
34.052,4064
34.371,3989
34.69,3917
35.009,3983
35.328,4142
35.647,15697
35.966,4405
36.285,4214
36.604,4393
36.923,4832
37.242,74108
37.561,5423
37.88,4476
38.199,4187
38.518,4267
38.837,4187
39.156,4169
39.475,4265
39.794,4199
40.113,4105
40.432,4226
40.751,4260
41.07,4273
41.389,4247
41.708,4222
42.027,4272
42.346,4459
42.665,4240
42.984,4262
43.303,4627
43.622,4320
43.941,4332
44.26,4320
44.579,4282
44.898,4587
45.217,4788
45.536,4335
45.855,4338
46.174,4374
46.493,5732
46.812,6975
47.131,4631
47.45,4547
47.769,5074
48.088,6007
48.407,4469
48.726,4480
49.045,4360
49.364,4257
49.683,4152
50.002,4356
50.321,4398
50.64,4426
50.959,4985
51.278,4486
51.597,6136
51.916,4540
52.235,4538
52.554,4568
52.873,4419
53.192,4586
53.511,4593
53.83,4592
54.149,10927
54.468,4730
54.787,4550
55.106,4511
55.425,4742
55.744,4752
56.063,4874
56.382,4807
56.701,4581
57.02,4481
57.339,4374
57.658,4542
57.977,4399
58.296,4650
58.615,4742
58.934,4897
59.253,4785
59.572,6070
59.891,8624
60.21,13106
60.529,5459
60.848,5047
61.167,4933
61.486,4847
61.805,4837
62.124,4862
62.443,4938
62.762,4928
63.081,5188
63.4,4933
63.719,4896
64.038,4870
64.357,4925
64.676,4936
64.995,5065
65.314,11180
65.633,5160
65.952,4958
66.271,5097
66.59,5138
66.909,5236
67.228,5024
67.547,5207
67.866,7099
68.185,5280
68.504,5178
68.823,5033
69.142,5260
69.461,11528
69.78,5583
70.099,5201
70.418,5177
70.737,5405
71.056,5247
71.375,5089
71.694,5239
72.013,9704
72.332,5503
72.651,5470
72.97,10293
73.289,6175
73.608,5380
73.927,5168
74.246,5209
74.565,5335
74.884,5242
75.203,5405
75.522,5763
75.841,5413
76.16,5291
76.479,5346
76.798,5314
77.117,5287
77.436,5365
77.755,5264
78.074,5290
78.393,6469
78.712,5550
79.031,5613
79.35,5931
79.669,5933
79.988,5489
80.307,5267
80.626,5230
80.945,5329
81.264,5304
81.583,5234
81.902,5394
82.221,5425
82.54,5614
82.859,6856
83.178,7201
83.497,5518
83.816,5499
84.135,5416
84.454,5304
84.773,5294
85.092,5518
85.411,6790
85.73,5423
86.049,5535
86.368,5628
86.687,7962
87.006,6037
87.325,5632
87.644,5572
87.963,5678
88.282,5495
88.601,5457
88.92,5512
89.239,5409
89.558,5592
89.877,6394
90.196,5976
90.515,5421
90.834,5428
91.153,5458
91.472,5742
91.791,5702
92.11,5544
92.429,5408
92.748,5979
93.067,5544
93.386,5499
93.705,5458
94.024,5557
94.343,5808
94.662,8242
94.981,11125
95.3,5969
95.619,5466
95.938,5449
96.257,5327
96.576,5401
96.895,5466
97.214,5820
97.533,6087
97.852,6123
98.171,5629
98.49,5564
98.809,5414
99.128,5615
99.447,5564
99.766,5542
99.998,5611