File: data/xrd_icdd_PDF/00-061-0389 (PD3).csv
10.02,335
10.4,295
10.78,271
11.16,270
11.54,255
11.92,250
12.3,264
12.68,229
13.06,344
13.44,208
13.82,227
14.2,244
14.58,196
14.96,153
15.34,172
15.72,185
16.1,173
16.48,167
16.86,156
17.24,156
17.62,155
18,150
18.38,138
18.76,131
19.14,121
19.52,137
19.9,112
20.28,95
20.66,110
21.04,108
21.42,97
21.8,162
22.18,123
22.56,98
22.94,107
23.32,98
23.7,84
24.08,116
24.46,88
24.84,77
25.22,78
25.6,89
25.98,89
26.36,316
26.74,113
27.12,132
27.5,307
27.88,91
28.26,88
28.64,92
29.02,114
29.4,82
29.78,159
30.16,127
30.54,153
30.92,3836
31.3,755
31.68,1731
32.06,5196
32.44,250
32.82,97
33.2,104
33.58,221
33.96,188
34.34,63
34.72,72
35.1,124
35.48,129
35.86,77
36.24,66
36.62,174
37,4916
37.38,306
37.76,93
38.14,104
38.52,47
38.9,66
39.28,56
39.66,64
40.04,120
40.42,104
40.8,74
41.18,122
41.56,77
41.94,69
42.32,64
42.7,109
43.08,827
43.46,148
43.84,136
44.22,816
44.6,1683
44.98,221
45.36,92
45.74,114
46.12,787
46.5,136
46.88,143
47.26,399
47.64,97
48.02,54
48.4,56
48.78,71
49.16,218
49.54,218
49.92,69
50.3,89
50.68,65
51.06,69
51.44,217
51.82,241
52.2,110
52.58,169
52.96,168
53.34,91
53.72,67
54.1,83
54.48,172
54.86,151
55.24,164
55.62,1142
56,1566
56.38,141
56.76,160
57.14,142
57.52,1158
57.9,497
58.28,97
58.66,61
59.04,69
59.42,108
59.8,49
60.18,64
60.56,67
60.94,55
61.32,98
61.7,115
62.08,229
62.46,99
62.84,61
63.22,74
63.6,367
63.98,128
64.36,151
64.74,1164
65.12,164
65.5,71
65.88,69
66.26,50
66.64,159
67.02,354
67.4,122
67.78,69
68.16,64
68.54,274
68.92,107
69.3,75
69.68,94
70.06,99
70.44,49
70.82,69
71.2,104
71.58,85
71.96,58
72.34,53
72.72,132
73.1,219
73.48,424
73.86,472
74.24,381
74.62,68
75,185
75.38,86
75.76,47
76.14,71
76.52,67
76.9,424
77.28,243
77.66,91
78.04,145
78.42,179
78.8,123
79.18,135
79.56,367
79.94,176
80.32,81
80.7,69
81.08,100
81.46,71
81.84,47
82.22,45
82.6,51
82.98,127
83.36,95
83.74,119
84.12,189
84.5,62
84.88,65
85.26,57
85.64,99
86.02,100
86.4,153
86.78,246
87.16,208
87.54,141
87.92,65
88.3,83
88.68,57
89.06,89
89.44,89
89.82,118
90.2,125
90.58,656
90.96,413
91.34,98
91.72,121
92.1,532
92.48,446
92.86,119
93.24,73
93.62,83
94,86
94.38,105
94.76,214
95.14,170
95.52,129
95.9,224
96.28,182
96.66,110
97.04,77
97.42,129
97.8,113
98.18,164
98.56,246
98.94,120
99.32,51
99.7,55
100.08,46
100.46,52
100.84,49
101.22,52
101.6,59
101.98,114
102.36,104
102.74,82
103.12,164
103.5,148
103.88,85
104.26,95
104.64,127
105.02,84
105.4,62
105.78,71
106.16,66
106.54,102
106.92,173
107.3,429
107.68,318
108.06,140
108.44,82
108.82,63
109.2,56
109.58,51
109.96,55
110.34,114
110.72,106
111.1,87
111.48,88
111.86,150
112.24,153
112.62,164
113,164
113.38,109
113.76,57
114.14,75
114.52,100
114.9,111
115.28,167
115.66,355
116.04,287
116.42,141
116.8,90
117.18,71
117.56,93
117.94,137
118.32,107
118.7,65
119.08,78
119.46,73
119.84,97
120,93