File: data/xrd_icdd_PDF/00-060-0761 (PD3).csv
5.0066,4418
5.4616,2274
5.9166,1702
6.3716,1853
6.8266,2556
7.2816,2141
7.7366,861
8.1916,432
8.6466,320
9.1016,234
9.5566,209
10.0116,221
10.4666,240
10.9216,227
11.3766,243
11.8316,252
12.2866,221
12.7416,265
13.1966,243
13.6516,270
14.1066,346
14.5616,324
15.0166,310
15.4716,347
15.9266,367
16.3816,419
16.8366,423
17.2916,504
17.7466,364
18.2016,332
18.6566,353
19.1116,353
19.5666,359
20.0216,343
20.4766,360
20.9316,383
21.3866,365
21.8416,354
22.2966,340
22.7516,371
23.2066,372
23.6616,421
24.1166,393
24.5716,364
25.0266,422
25.4816,418
25.9366,407
26.3916,440
26.8466,418
27.3016,401
27.7566,447
28.2116,1022
28.6666,467
29.1216,702
29.5766,508
30.0316,489
30.4866,477
30.9416,8662
31.3966,467
31.8516,486
32.3066,454
32.7616,1320
33.2166,1398
33.6716,699
34.1266,2112
34.5816,473
35.0366,1249
35.4916,497
35.9466,535
36.4016,447
36.8566,419
37.3116,887
37.7666,458
38.2216,450
38.6766,455
39.1316,426
39.5866,434
40.0416,452
40.4966,448
40.9516,527
41.4066,465
41.8616,445
42.3166,518
42.7716,494
43.2266,463
43.6816,459
44.1366,419
44.5916,430
45.0466,469
45.5016,438
45.9566,485
46.4116,475
46.8666,723
47.3216,606
47.7766,467
48.2316,536
48.6866,688
49.1416,461
49.5966,469
50.0516,1297
50.5066,485
50.9616,497
51.4166,552
51.8716,2754
52.3266,530
52.7816,537
53.2366,655
53.6916,959
54.1466,491
54.6016,475
55.0566,454
55.5116,494
55.9666,640
56.4216,723
56.8766,515
57.3316,986
57.7866,513
58.2416,579
58.6966,2376
59.1516,536
59.6066,460
60.0616,451
60.5166,490
60.9716,471
61.4266,458
61.8816,580
62.3366,475
62.7916,458
63.2466,496
63.7016,491
64.1566,683
64.6116,830
65.0666,485
65.5216,502
65.9766,501
66.4316,524
66.8866,478
67.3416,517
67.7966,966
68.2516,481
68.7066,600
69.1616,517
69.6166,893
70.0716,1122
70.5266,470
70.9816,477
71.4366,522
71.8916,539
72.3466,501
72.8016,503
73.2566,486
73.7116,482
74.1666,483
74.6216,522
75.0766,524
75.5316,489
75.9866,494
76.4416,879
76.8966,480
77.3516,473
77.8066,509
78.2616,516
78.7166,562
79.1716,507
79.6266,506
80.0816,527
80.5366,906
80.9916,616
81.4466,560
81.9016,936
82.3566,513
82.8116,532
83.2666,804
83.7216,767
84.1766,478
84.6316,518
85.0866,530
85.5416,603
85.9966,594
86.4516,546
86.9066,503
87.3616,513
87.8166,534
88.2716,595
88.7266,506
89.1816,505
89.6366,493
90.0916,554
90.5466,805
91.0016,524
91.4566,502
91.9116,536
92.3666,588
92.8216,611
93.2766,477
93.7316,537
94.1866,653
94.6416,570
95.0966,592
95.5516,742
96.0066,537
96.4616,519
96.9166,793
97.3716,608
97.8266,525
98.2816,492
98.7366,513
99.1916,559
99.6466,540
100.1016,558
100.5566,515
101.0116,510
101.4666,529
101.9216,548
102.3766,570
102.8316,527
103.2866,506
103.7416,511
104.1966,613
104.6516,547
105.1066,520
105.5616,513
106.0166,542
106.4716,545
106.9266,545
107.3816,639
107.8366,505
108.2916,551
108.7466,533
109.2016,560
109.6566,675
110.1116,551
110.5666,588
111.0216,557
111.4766,505
111.9316,541
112.3866,523
112.8416,542
113.2966,648
113.7516,627
114.2066,637
114.6616,547
115.1166,524
115.5716,733
116.0266,659
116.4816,559
116.9366,530
117.3916,518
117.8466,569
118.3016,553
118.7566,668
119.2116,572
119.6666,555
120.1216,528
120.5766,574
121.0316,631
121.4866,928
121.9416,742
122.3966,561
122.8516,589
123.3066,596
123.7616,593
124.2166,731
124.6716,737
125.1266,690
125.5816,645
126.0366,596
126.4916,608
126.9466,612
127.4016,631
127.8566,706
128.3116,654
128.7666,584
129.2216,597
129.6766,583
130.1316,599
130.5866,924
131.0416,648
131.4966,628
131.9516,660
132.4066,788
132.8616,615
133.3166,589
133.7716,583
134.2266,569
134.6816,593
135.1366,582
135.5916,566
136.0466,656
136.5016,580
136.9566,594
137.4116,607
137.8666,624
138.3216,591
138.7766,656
139.2316,680
139.6866,625
139.9986,648