File: data/xrd_icdd_PDF/00-050-1474 (PD3).csv
7,474
7.32,468
7.64,420
7.96,468
8.28,481
8.6,477
8.92,450
9.24,392
9.56,435
9.88,404
10.2,351
10.52,384
10.84,396
11.16,372
11.48,362
11.8,377
12.12,338
12.44,333
12.76,383
13.08,346
13.4,304
13.72,368
14.04,337
14.36,347
14.68,352
15,467
15.32,357
15.64,349
15.96,307
16.28,294
16.6,339
16.92,322
17.24,291
17.56,526
17.88,323
18.2,301
18.52,306
18.84,313
19.16,314
19.48,315
19.8,312
20.12,300
20.44,307
20.76,302
21.08,307
21.4,304
21.72,330
22.04,308
22.36,333
22.68,324
23,286
23.32,310
23.64,244
23.96,289
24.28,307
24.6,244
24.92,338
25.24,302
25.56,285
25.88,218
26.2,288
26.52,300
26.84,259
27.16,268
27.48,266
27.8,302
28.12,266
28.44,301
28.76,248
29.08,244
29.4,255
29.72,221
30.04,265
30.36,257
30.68,276
31,272
31.32,230
31.64,228
31.96,231
32.28,258
32.6,270
32.92,341
33.24,911
33.56,302
33.88,451
34.2,1924
34.52,275
34.84,331
35.16,337
35.48,10687
35.8,370
36.12,259
36.44,385
36.76,254
37.08,244
37.4,405
37.72,901
38.04,291
38.36,324
38.68,234
39,221
39.32,249
39.64,370
39.96,491
40.28,260
40.6,250
40.92,573
41.24,250
41.56,503
41.88,931
42.2,256
42.52,276
42.84,241
43.16,253
43.48,747
43.8,4243
44.12,385
44.44,264
44.76,485
45.08,254
45.4,249
45.72,1551
46.04,268
46.36,239
46.68,460
47,344
47.32,304
47.64,568
47.96,228
48.28,203
48.6,213
48.92,266
49.24,393
49.56,213
49.88,238
50.2,1274
50.52,264
50.84,205
51.16,291
51.48,322
51.8,260
52.12,205
52.44,206
52.76,219
53.08,188
53.4,195
53.72,237
54.04,264
54.36,185
54.68,241
55,197
55.32,212
55.64,226
55.96,692
56.28,301
56.6,180
56.92,220
57.24,246
57.56,317
57.88,205
58.2,203
58.52,227
58.84,233
59.16,280
59.48,321
59.8,208
60.12,234
60.44,324
60.76,454
61.08,238
61.4,195
61.72,219
62.04,236
62.36,307
62.68,216
63,379
63.32,234
63.64,227
63.96,346
64.28,384
64.6,259
64.92,209
65.24,279
65.56,263
65.88,204
66.2,228
66.52,568
66.84,237
67.16,207
67.48,247
67.8,319
68.12,200
68.44,267
68.76,691
69.08,270
69.4,264
69.72,217
70.04,282
70.36,237
70.68,228
71,256
71.32,183
71.64,186
71.96,192
72.28,180
72.6,189
72.92,269
73.24,195
73.56,273
73.88,285
74.2,308
74.52,226
74.84,329
75.16,653
75.48,305
75.8,231
76.12,203
76.44,240
76.76,285
77.08,193
77.4,191
77.72,253
78.04,206
78.36,185
78.68,180
79,303
79.32,286
79.64,296
79.96,266
80.28,270
80.6,214
80.92,236
81.24,244
81.56,257
81.88,308
82.2,249
82.52,237
82.84,195
83.16,189
83.48,193
83.8,192
84.12,206
84.44,200
84.76,261
85.08,243
85.4,225
85.72,214
86.04,203
86.36,216
86.68,256
87,223
87.32,334
87.64,211
87.96,168
88.28,183
88.6,207
88.92,244
89.24,215
89.56,237
89.88,251
90.2,211
90.52,240
90.84,215
91.16,268
91.48,301
91.8,252
92.12,235
92.44,200
92.76,185
93.08,219
93.4,193
93.72,249
94.04,199
94.36,215
94.68,213
95,199
95.32,247
95.64,180
95.96,209
96.28,284
96.6,356
96.92,258
97.24,198
97.56,240
97.88,260
98.2,208
98.52,181
98.84,179
99.16,189
99.48,184
99.8,240
100,206