File: data/xrd_icdd_PDF/00-067-0215 (PD3).csv
10,11400
10.37485,11679
10.74971,11696
11.12456,11575
11.49941,11719
11.87426,11761
12.24912,11605
12.62397,11022
12.99882,10661
13.37368,10375
13.74853,9784
14.12338,9274
14.49823,8763
14.87309,8110
15.24794,7690
15.62279,7052
15.99765,6724
16.3725,18730
16.74735,6221
17.12221,5558
17.49706,5593
17.87191,6315
18.24676,5686
18.62162,10172
18.99647,4735
19.37132,4308
19.74618,4045
20.12103,4222
20.49588,6822
20.87073,4078
21.24559,3553
21.62044,3315
21.99529,3187
22.37015,3147
22.745,3079
23.11985,2967
23.4947,2881
23.86956,2985
24.24441,17993
24.61926,2829
24.99412,2520
25.36897,2408
25.74382,2269
26.11867,2224
26.49353,2106
26.86838,2043
27.24323,1998
27.61809,2027
27.99294,1910
28.36779,2388
28.74264,2131
29.1175,1650
29.49235,1682
29.8672,1704
30.24206,1610
30.61691,1543
30.99176,3828
31.36662,5141
31.74147,1555
32.11632,1470
32.49117,1910
32.86603,10741
33.24088,11814
33.61573,1247
33.99059,1168
34.36544,1354
34.74029,1097
35.11514,1220
35.49,1089
35.86485,4512
36.2397,1217
36.61456,998
36.98941,1016
37.36426,1280
37.73911,15094
38.11397,2114
38.48882,12835
38.86367,877
39.23853,919
39.61338,1637
39.98823,1137
40.36308,755
40.73794,743
41.11279,954
41.48764,1290
41.8625,2415
42.23735,1093
42.6122,706
42.98706,665
43.36191,3594
43.73676,623
44.11161,594
44.48647,650
44.86132,548
45.23617,560
45.61103,582
45.98588,4021
46.36073,739
46.73558,561
47.11044,586
47.48529,980
47.86014,920
48.235,4101
48.60985,1156
48.9847,639
49.35955,3371
49.73441,4197
50.10926,985
50.48411,2901
50.85897,3110
51.23382,707
51.60867,501
51.98352,512
52.35838,531
52.73323,521
53.10808,1805
53.48294,2533
53.85779,699
54.23264,1832
54.6075,6637
54.98235,2543
55.3572,1792
55.73205,2780
56.10691,1326
56.48176,2159
56.85661,559
57.23147,1824
57.60632,935
57.98117,1383
58.35602,515
58.73088,1398
59.10573,1330
59.48058,423
59.85544,1599
60.23029,660
60.60514,590
60.97999,389
61.35485,381
61.7297,391
62.10455,414
62.47941,428
62.85426,615
63.22911,560
63.60396,849
63.97882,798
64.35367,650
64.72852,1472
65.10338,1209
65.47823,1440
65.85308,3323
66.22794,827
66.60279,1025
66.97764,710
67.35249,1029
67.72735,1894
68.1022,1114
68.47705,1990
68.85191,2146
69.22676,679
69.60161,740
69.97646,1041
70.35132,613
70.72617,333
71.10102,321
71.47588,899
71.85073,1498
72.22558,585
72.60043,916
72.97529,1082
73.35014,517
73.72499,350
74.09985,388
74.4747,366
74.84955,312
75.2244,481
75.59926,495
75.97411,730
76.34896,1051
76.72382,525
77.09867,1071
77.47352,1128
77.84837,549
78.22323,875
78.59808,958
78.97293,348
79.34779,328
79.72264,656
80.09749,737
80.47235,618
80.8472,820
81.22205,583
81.5969,553
81.97176,416
82.34661,1072
82.72146,472
83.09632,590
83.47117,597
83.84602,506
84.22087,591
84.59573,890
84.97058,448
85.34543,529
85.72029,485
86.09514,842
86.46999,457
86.84484,607
87.2197,421
87.59455,386
87.9694,531
88.34426,603
88.71911,365
89.09396,668
89.46881,716
89.84367,917
90.21852,1349
90.59337,1017
90.96823,981
91.34308,828
91.71793,764
92.09279,447
92.46764,867
92.84249,701
93.21734,623
93.5922,859
93.96705,1444
94.3419,979
94.71676,1173
95.09161,1113
95.46646,924
95.84131,490
96.21617,744
96.59102,501
96.96587,411
97.34073,644
97.71558,458
98.09043,356
98.46528,281
98.84014,278
99.21499,380
99.58984,378
99.9647,435
100.34,371
100.7144,498
101.089,675
101.464,583
101.839,340
102.214,486
102.589,831
102.964,762
103.338,631
103.713,525
104.088,368
104.463,518
104.838,563
105.213,631
105.587,465
105.962,921
106.3372,1012
106.712,1138
107.0869,777
107.462,494
107.837,608
108.211,1048
108.586,781
108.961,807
109.336,803
109.711,701
110.086,530
110.461,852
110.835,673
111.21,372
111.585,400
111.96,444
112.335,449
112.71,384
113.085,495
113.4594,811
113.834,556
114.209,578
114.584,730
114.959,645
115.334,626
115.709,712
116.083,559
116.458,858
116.833,1076
117.208,1156
117.583,931
117.958,899
118.332,998
118.707,1009
119.082,665
119.457,526
119.8319,534
120.029,618