File: data/xrd_icdd_PDF/00-055-0894 (PD3).csv
4.9,1304
5.22,1258
5.54,1201
5.86,1223
6.18,1136
6.5,1126
6.82,1141
7.14,1064
7.46,1078
7.78,1119
8.1,1034
8.42,1014
8.74,1040
9.06,1021
9.38,978
9.7,1000
10.02,983
10.34,1016
10.66,942
10.98,934
11.3,941
11.62,1195
11.94,1039
12.26,931
12.58,901
12.9,888
13.22,851
13.54,870
13.86,820
14.18,889
14.5,892
14.82,860
15.14,888
15.46,889
15.78,1289
16.1,896
16.42,872
16.74,931
17.06,880
17.38,885
17.7,938
18.02,830
18.34,946
18.66,1150
18.98,957
19.3,922
19.62,1214
19.94,1802
20.26,1784
20.58,962
20.9,986
21.22,2133
21.54,922
21.86,828
22.18,1299
22.5,945
22.82,765
23.14,846
23.46,953
23.78,1209
24.1,914
24.42,794
24.74,765
25.06,764
25.38,709
25.7,819
26.02,2381
26.34,1749
26.66,814
26.98,731
27.3,1263
27.62,720
27.94,679
28.26,723
28.58,8489
28.9,958
29.22,646
29.54,699
29.86,596
30.18,590
30.5,661
30.82,5199
31.14,956
31.46,728
31.78,19075
32.1,4626
32.42,664
32.74,598
33.06,1562
33.38,645
33.7,578
34.02,1126
34.34,624
34.66,2724
34.98,523
35.3,563
35.62,2033
35.94,1625
36.26,604
36.58,530
36.9,743
37.22,516
37.54,540
37.86,687
38.18,994
38.5,714
38.82,528
39.14,544
39.46,669
39.78,544
40.1,1449
40.42,1008
40.74,502
41.06,479
41.38,580
41.7,1427
42.02,544
42.34,1577
42.66,1042
42.98,492
43.3,495
43.62,712
43.94,502
44.26,766
44.58,507
44.9,750
45.22,1074
45.54,739
45.86,1669
46.18,532
46.5,1478
46.82,698
47.14,506
47.46,598
47.78,482
48.1,906
48.42,1271
48.74,512
49.06,501
49.38,1119
49.7,546
50.02,521
50.34,531
50.66,494
50.98,464
51.3,973
51.62,440
51.94,457
52.26,741
52.58,691
52.9,626
53.22,2352
53.54,826
53.86,1176
54.18,508
54.5,870
54.82,1708
55.14,657
55.46,534
55.78,490
56.1,690
56.42,983
56.74,559
57.06,438
57.38,465
57.7,428
58.02,418
58.34,882
58.66,826
58.98,605
59.3,822
59.62,396
59.94,624
60.26,513
60.58,403
60.9,636
61.22,494
61.54,446
61.86,685
62.18,443
62.5,423
62.82,813
63.14,409
63.46,431
63.78,1271
64.1,610
64.42,432
64.74,415
65.06,396
65.38,440
65.7,436
66.02,420
66.34,2200
66.66,493
66.98,448
67.3,659
67.62,443
67.94,441
68.26,379
68.58,849
68.9,652
69.22,452
69.54,880
69.86,398
70.18,485
70.5,536
70.82,449
71.14,420
71.46,712
71.78,582
72.1,575
72.42,444
72.74,476
73.06,458
73.38,631
73.7,497
74.02,583
74.34,730
74.66,495
74.98,400
75.3,482
75.62,988
75.94,457
76.26,444
76.58,381
76.9,491
77.22,409
77.54,398
77.86,471
78.18,578
78.5,533
78.82,437
79.14,460
79.46,375
79.78,388
80.1,614
80.42,434
80.74,430
81.06,615
81.38,404
81.7,395
82.02,389
82.34,378
82.66,419
82.98,418
83.3,592
83.62,371
83.94,433
84.26,489
84.58,383
84.9,410
85.22,393
85.54,361
85.86,425
86.18,484
86.5,515
86.82,498
87.14,755
87.46,458
87.78,429
88.1,447
88.42,442
88.74,487
89.06,446
89.38,412
89.7,455
90.02,705
90.34,525
90.66,400
90.98,486
91.3,463
91.62,458
91.94,393
92.26,593
92.58,361
92.9,348
93.22,349
93.54,406
93.86,442
94.18,394
94.5,478
94.82,382
95.14,506
95.46,430
95.78,404
96.1,348
96.42,320
96.74,347
97.06,361
97.38,370
97.7,389
98.02,399
98.34,368
98.66,339
98.98,346
99.3,461
99.62,370
99.94,347
100.1,0