File: data/xrd_icdd_PDF/00-063-0396 (PD3).csv
5,1018
5.4,891
5.8,933
6.2,721
6.6,664
7,609
7.4,573
7.8,424
8.2,424
8.6,424
9,424
9.4,424
9.8,467
10.2,467
10.6,382
11,425
11.4,397
11.8,355
12.2,406
12.6,370
13,313
13.4,336
13.8,297
14.2,279
14.6,319
15,335
15.4,272
15.8,308
16.2,272
16.6,332
17,266
17.4,297
17.8,321
18.2,236
18.6,211
19,269
19.4,287
19.8,234
20.2,210
20.6,282
21,636
21.4,229
21.8,270
22.2,222
22.6,272
23,226
23.4,237
23.8,424
24.2,213
24.6,247
25,297
25.4,2227
25.8,343
26.2,543
26.6,214
27,275
27.4,228
27.8,196
28.2,217
28.6,274
29,262
29.4,281
29.8,348
30.2,295
30.6,1061
31,325
31.4,266
31.8,253
32.2,342
32.6,353
33,850
33.4,960
33.8,11284
34.2,3669
34.6,2163
35,518
35.4,594
35.8,551
36.2,4263
36.6,445
37,320
37.4,334
37.8,404
38.2,1145
38.6,3181
39,2927
39.4,661
39.8,370
40.2,368
40.6,310
41,352
41.4,314
41.8,413
42.2,2609
42.6,653
43,1175
43.4,511
43.8,348
44.2,366
44.6,295
45,327
45.4,337
45.8,307
46.2,287
46.6,463
47,380
47.4,348
47.8,366
48.2,428
48.6,848
49,319
49.4,360
49.8,422
50.2,320
50.6,456
51,382
51.4,401
51.8,721
52.2,1082
52.6,363
53,386
53.4,522
53.8,460
54.2,315
54.6,320
55,706
55.4,489
55.8,791
56.2,656
56.6,439
57,1188
57.4,1018
57.8,706
58.2,506
58.6,1280
59,1115
59.4,706
59.8,589
60.2,370
60.6,323
61,290
61.4,322
61.8,459
62.2,633
62.6,344
63,443
63.4,378
63.8,368
64.2,575
64.6,357
65,368
65.4,1041
65.8,848
66.2,413
66.6,417
67,490
67.4,301
67.8,359
68.2,398
68.6,328
69,329
69.4,369
69.8,618
70.2,397
70.6,299
71,600
71.4,1824
71.8,427
72.2,363
72.6,308
73,554
73.4,634
73.8,407
74.2,392
74.6,525
75,417
75.4,758
75.8,462
76.2,574
76.6,708
77,539
77.4,317
77.8,326
78.2,402
78.6,870
79,467
79.4,310
79.8,295
80.2,315
80.6,299
81,229
81.4,213
81.8,276
82.2,290
82.6,348
83,255
83.4,294
83.8,335
84.2,307
84.6,273
85,308
85.4,232
85.8,319
86.2,308
86.6,272
87,369
87.4,290
87.8,305
88.2,806
88.6,785
89,510
89.4,354
89.8,313
90.2,254
90.6,288
91,271
91.4,319
91.8,277
92.2,467
92.6,509
93,329
93.4,411
93.8,509
94.2,582
94.6,484
95,424
95.4,297
95.8,318
96.2,297
96.6,382
97,467
97.4,382
97.8,403
98.2,339
98.6,424
99,424
99.4,409
99.8,382
100.2,933
100.6,424
101,355
101.4,355
101.8,382
102.2,403
102.6,488
103,339
103.4,315
103.8,328
104.2,394
104.6,489
105,368
105.4,318
105.8,382
106.2,382
106.6,339
107,376
107.4,424
107.8,434
108.2,390
108.6,298
109,317
109.4,594
109.8,933
110.2,580
110.6,632
111,509
111.4,360
111.8,294
112.2,370
112.6,319
113,373
113.4,329
113.8,424
114.2,339
114.6,355
115,395
115.4,458
115.8,392
116.2,328
116.6,433
117,409
117.4,414
117.8,432
118.2,418
118.6,311
119,385
119.4,276
119.8,371
120.04,284