File: data/xrd_icdd_PDF/00-059-0244 (PD3).csv
10,4967
10.36,5081
10.72,4898
11.08,4906
11.44,5237
11.8,4651
12.16,4587
12.52,4448
12.88,4280
13.24,4121
13.6,3938
13.96,3801
14.32,3728
14.68,3786
15.04,3514
15.4,3615
15.76,3455
16.12,3301
16.48,3283
16.84,3312
17.2,3219
17.56,3347
17.92,5951
18.28,2976
18.64,2923
19,3041
19.36,2844
19.72,2884
20.08,2826
20.44,2756
20.8,2739
21.16,2674
21.52,2642
21.88,2643
22.24,2857
22.6,4316
22.96,2559
23.32,3860
23.68,2576
24.04,2381
24.4,2414
24.76,2486
25.12,2507
25.48,2372
25.84,2438
26.2,2741
26.56,2982
26.92,2464
27.28,2866
27.64,2562
28,3453
28.36,2364
28.72,2302
29.08,2204
29.44,2257
29.8,2255
30.16,2201
30.52,2216
30.88,2283
31.24,7039
31.6,2253
31.96,2198
32.32,2118
32.68,2189
33.04,2192
33.4,2204
33.76,2232
34.12,2248
34.48,2257
34.84,2511
35.2,3343
35.56,7603
35.92,13676
36.28,10167
36.64,16241
37,3622
37.36,2638
37.72,3966
38.08,6892
38.44,2679
38.8,2541
39.16,5664
39.52,9608
39.88,2857
40.24,2262
40.6,2245
40.96,2150
41.32,2193
41.68,2148
42.04,2166
42.4,2085
42.76,2166
43.12,2455
43.48,4362
43.84,2493
44.2,6354
44.56,3699
44.92,2830
45.28,7651
45.64,2329
46,2118
46.36,2361
46.72,1971
47.08,2094
47.44,2130
47.8,2788
48.16,3283
48.52,2195
48.88,2032
49.24,2390
49.6,2083
49.96,1926
50.32,1990
50.68,2576
51.04,3145
51.4,2053
51.76,1850
52.12,1919
52.48,1843
52.84,2420
53.2,1942
53.56,1878
53.92,1867
54.28,1966
54.64,1923
55,1872
55.36,2050
55.72,3471
56.08,2185
56.44,3108
56.8,3544
57.16,2064
57.52,1963
57.88,2205
58.24,2238
58.6,3827
58.96,2662
59.32,2405
59.68,6865
60.04,2497
60.4,2140
60.76,2944
61.12,1998
61.48,2129
61.84,2215
62.2,2301
62.56,2798
62.92,2042
63.28,2083
63.64,2818
64,2497
64.36,2814
64.72,4850
65.08,4917
65.44,2772
65.8,2153
66.16,3119
66.52,2095
66.88,2053
67.24,2037
67.6,2737
67.96,2093
68.32,1975
68.68,1964
69.04,2090
69.4,3626
69.76,2131
70.12,1860
70.48,1961
70.84,2130
71.2,2102
71.56,2639
71.92,3376
72.28,2082
72.64,1998
73,2086
73.36,3958
73.72,3541
74.08,2779
74.44,3454
74.8,3699
75.16,2259
75.52,2214
75.88,3854
76.24,3272
76.6,3053
76.96,2604
77.32,2446
77.68,2212
78.04,2890
78.4,3095
78.76,2105
79.12,2021
79.48,2298
79.84,2514
80.2,1954
80.56,2024
80.92,2220
81.28,2290
81.64,1962
82,1941
82.36,1991
82.72,2037
83.08,2117
83.44,2495
83.8,2111
84.16,2664
84.52,2644
84.88,2086
85.24,2021
85.6,1988
85.96,1970
86.32,2251
86.68,2366
87.04,2009
87.4,1922
87.76,1970
88.12,1941
88.48,1935
88.84,1953
89.2,2335
89.56,2070
89.92,1992
90.28,2011
90.64,2038
91,2135
91.36,2337
91.72,2104
92.08,1971
92.44,2163
92.8,2201
93.16,2057
93.52,2071
93.88,2153
94.24,2073
94.6,2178
94.96,2455
95.32,2418
95.68,2101
96.04,2024
96.4,1985
96.76,1944
97.12,2146
97.48,2585
97.84,3594
98.2,3222
98.56,2258
98.92,2003
99.28,2226
99.64,2869
100,2596
100.36,2154
100.72,2177
101.08,2113
101.44,2138
101.8,2120
102.16,2588
102.52,2639
102.88,2191
103.24,2113
103.6,2068
103.96,2799
104.32,2842
104.68,2709
105.04,2461
105.4,2408
105.76,2320
106.12,2297
106.48,2526
106.84,2440
107.2,2370
107.56,2660
107.92,2679
108.28,2393
108.64,2198
109,2510
109.36,2523
109.72,2501
110.08,2323
110.44,2658
110.8,2560
111.16,2110
111.52,2118
111.88,2243
112.24,2313
112.6,2379
112.96,2216
113.32,2250
113.68,2151
114.04,2257
114.4,2173
114.76,2224
115.12,2119
115.48,2408
115.84,2281
116.2,2264
116.56,2181
116.9,2161