File: data/xrd_icdd_PDF/00-063-0405 (PD3).csv
5,510
5.4,446
5.8,465
6.2,437
6.6,410
7,310
7.4,318
7.8,282
8.2,300
8.6,240
9,282
9.4,282
9.8,255
10.2,219
10.6,200
11,565
11.4,164
11.8,200
12.2,182
12.6,219
13,109
13.4,128
13.8,164
14.2,228
14.6,200
15,173
15.4,182
15.8,182
16.2,146
16.6,91
17,182
17.4,200
17.8,328
18.2,182
18.6,146
19,128
19.4,146
19.8,173
20.2,109
20.6,146
21,160
21.4,142
21.8,171
22.2,155
22.6,182
23,146
23.4,146
23.8,200
24.2,997
24.6,218
25,319
25.4,164
25.8,157
26.2,188
26.6,219
27,237
27.4,200
27.8,2924
28.2,328
28.6,3633
29,300
29.4,233
29.8,240
30.2,232
30.6,273
31,2460
31.4,547
31.8,410
32.2,3134
32.6,2594
33,4245
33.4,1494
33.8,361
34.2,259
34.6,246
35,324
35.4,651
35.8,2761
36.2,1297
36.6,376
37,292
37.4,266
37.8,278
38.2,223
38.6,392
39,383
39.4,4519
39.8,1348
40.2,346
40.6,683
41,492
41.4,356
41.8,793
42.2,2441
42.6,346
43,421
43.4,911
43.8,1130
44.2,376
44.6,327
45,296
45.4,294
45.8,449
46.2,328
46.6,301
47,410
47.4,1931
47.8,301
48.2,200
48.6,255
49,346
49.4,219
49.8,259
50.2,246
50.6,274
51,465
51.4,237
51.8,292
52.2,1844
52.6,793
53,720
53.4,783
53.8,210
54.2,358
54.6,1020
55,444
55.4,743
55.8,1075
56.2,328
56.6,346
57,573
57.4,1005
57.8,984
58.2,422
58.6,453
59,296
59.4,421
59.8,433
60.2,273
60.6,292
61,492
61.4,392
61.8,237
62.2,374
62.6,510
63,1367
63.4,765
63.8,328
64.2,371
64.6,310
65,783
65.4,357
65.8,348
66.2,884
66.6,455
67,656
67.4,292
67.8,410
68.2,292
68.6,266
69,324
69.4,303
69.8,257
70.2,304
70.6,445
71,456
71.4,637
71.8,475
72.2,697
72.6,565
73,593
73.4,563
73.8,377
74.2,284
74.6,313
75,1039
75.4,492
75.8,410
76.2,428
76.6,537
77,383
77.4,701
77.8,455
78.2,255
78.6,401
79,583
79.4,629
79.8,273
80.2,711
80.6,428
81,445
81.4,621
81.8,556
82.2,420
82.6,383
83,387
83.4,400
83.8,303
84.2,327
84.6,390
85,275
85.4,282
85.8,237
86.2,255
86.6,301
87,282
87.4,419
87.8,328
88.2,428
88.6,273
89,228
89.4,282
89.8,437
90.2,328
90.6,310
91,282
91.4,310
91.8,200
92.2,292
92.6,355
93,264
93.4,346
93.8,292
94.2,455
94.6,446
95,419
95.4,355
95.8,547
96.2,483
96.6,319
97,200
97.4,219
97.8,246
98.2,200
98.6,273
99,364
99.4,310
99.8,328
100.2,364
100.6,255
101,392
101.4,255
101.8,273
102.2,346
102.6,328
103,401
103.4,392
103.8,364
104.2,383
104.6,374
105,437
105.4,483
105.8,401
106.2,364
106.6,292
107,346
107.4,292
107.8,200
108.2,273
108.6,383
109,301
109.4,273
109.8,328
110.2,383
110.6,337
111,364
111.4,392
111.8,282
112.2,656
112.6,510
113,346
113.4,346
113.8,383
114.2,574
114.6,455
115,383
115.4,374
115.8,237
116.2,383
116.6,437
117,528
117.4,492
117.8,364
118.2,246
118.6,401
119,392
119.4,401
119.8,401
119.92,328