File: data/xrd_icdd_PDF/00-063-0399 (PD3).csv
5,401
5.4,397
5.8,364
6.2,386
6.6,307
7,378
7.4,348
7.8,278
8.2,283
8.6,286
9,236
9.4,236
9.8,260
10.2,229
10.6,225
11,265
11.4,195
11.8,236
12.2,177
12.6,236
13,189
13.4,217
13.8,165
14.2,165
14.6,142
15,154
15.4,154
15.8,201
16.2,142
16.6,154
17,331
17.4,131
17.8,175
18.2,152
18.6,120
19,121
19.4,165
19.8,118
20.2,165
20.6,155
21,106
21.4,874
21.8,130
22.2,130
22.6,142
23,142
23.4,142
23.8,283
24.2,165
24.6,142
25,118
25.4,213
25.8,2008
26.2,260
26.6,319
27,130
27.4,189
27.8,142
28.2,154
28.6,145
29,104
29.4,125
29.8,142
30.2,278
30.6,165
31,1618
31.4,196
31.8,172
32.2,138
32.6,145
33,230
33.4,292
33.8,1335
34.2,3236
34.6,5541
35,3047
35.4,520
35.8,260
36.2,1181
36.6,898
37,753
37.4,239
37.8,165
38.2,203
38.6,378
39,15802
39.4,555
39.8,6082
40.2,460
40.6,222
41,180
41.4,180
41.8,169
42.2,181
42.6,425
43,1594
43.4,947
43.8,442
44.2,227
44.6,165
45,179
45.4,189
45.8,236
46.2,165
46.6,213
47,189
47.4,461
47.8,236
48.2,233
48.6,195
49,316
49.4,2279
49.8,189
50.2,142
50.6,142
51,283
51.4,262
51.8,181
52.2,236
52.6,402
53,1937
53.4,283
53.8,189
54.2,142
54.6,850
55,240
55.4,236
55.8,260
56.2,850
56.6,1134
57,496
57.4,260
57.8,260
58.2,2764
58.6,2433
59,295
59.4,369
59.8,2338
60.2,378
60.6,449
61,165
61.4,177
61.8,213
62.2,165
62.6,236
63,425
63.4,591
63.8,201
64.2,402
64.6,685
65,213
65.4,898
65.8,213
66.2,283
66.6,673
67,1299
67.4,472
67.8,591
68.2,201
68.6,165
69,189
69.4,425
69.8,142
70.2,390
70.6,319
71,496
71.4,260
71.8,201
72.2,567
72.6,1878
73,331
73.4,189
73.8,378
74.2,1205
74.6,331
75,567
75.4,201
75.8,496
76.2,354
76.6,1110
77,531
77.4,214
77.8,614
78.2,425
78.6,354
79,224
79.4,331
79.8,661
80.2,886
80.6,224
81,260
81.4,165
81.8,189
82.2,142
82.6,213
83,94
83.4,201
83.8,189
84.2,331
84.6,201
85,331
85.4,449
85.8,307
86.2,307
86.6,165
87,118
87.4,142
87.8,350
88.2,189
88.6,272
89,213
89.4,260
89.8,236
90.2,402
90.6,543
91,496
91.4,260
91.8,201
92.2,165
92.6,165
93,189
93.4,189
93.8,402
94.2,555
94.6,472
95,189
95.4,232
95.8,454
96.2,429
96.6,402
97,283
97.4,248
97.8,260
98.2,165
98.6,283
99,509
99.4,283
99.8,354
100.2,213
100.6,236
101,224
101.4,520
101.8,331
102.2,874
102.6,543
103,295
103.4,165
103.8,165
104.2,591
104.6,543
105,319
105.4,189
105.8,283
106.2,342
106.6,626
107,520
107.4,224
107.8,165
108.2,236
108.6,709
109,390
109.4,331
109.8,283
110.2,189
110.6,248
111,260
111.4,224
111.8,354
112.2,850
112.6,827
113,425
113.4,425
113.8,260
114.2,154
114.6,130
115,177
115.4,189
115.8,189
116.2,254
116.6,349
117,295
117.4,236
117.8,342
118.2,295
118.6,283
119,378
119.4,378
119.8,307
120.04,189