File: data/xrd_icdd_PDF/00-063-0413 (PD3).csv
5,413
5.4,397
5.8,385
6.2,328
6.6,309
7,309
7.4,288
7.8,289
8.2,268
8.6,247
9,236
9.4,258
9.8,268
10.2,237
10.6,191
11,209
11.4,199
11.8,188
12.2,197
12.6,182
13,167
13.4,157
13.8,175
14.2,157
14.6,149
15,124
15.4,138
15.8,137
16.2,138
16.6,130
17,423
17.4,111
17.8,120
18.2,124
18.6,136
19,160
19.4,186
19.8,239
20.2,141
20.6,97
21,122
21.4,95
21.8,144
22.2,120
22.6,127
23,165
23.4,448
23.8,131
24.2,139
24.6,113
25,166
25.4,223
25.8,159
26.2,150
26.6,222
27,979
27.4,289
27.8,258
28.2,175
28.6,149
29,187
29.4,178
29.8,247
30.2,185
30.6,175
31,197
31.4,197
31.8,221
32.2,240
32.6,274
33,334
33.4,928
33.8,6506
34.2,2378
34.6,5856
35,661
35.4,1710
35.8,467
36.2,356
36.6,391
37,316
37.4,1312
37.8,478
38.2,316
38.6,331
39,1186
39.4,392
39.8,391
40.2,1266
40.6,598
41,1670
41.4,3298
41.8,502
42.2,366
42.6,379
43,670
43.4,1852
43.8,385
44.2,350
44.6,338
45,928
45.4,395
45.8,337
46.2,312
46.6,292
47,317
47.4,326
47.8,308
48.2,328
48.6,316
49,314
49.4,344
49.8,343
50.2,290
50.6,366
51,903
51.4,424
51.8,366
52.2,422
52.6,411
53,384
53.4,413
53.8,377
54.2,403
54.6,440
55,401
55.4,516
55.8,825
56.2,654
56.6,1711
57,619
57.4,500
57.8,355
58.2,544
58.6,332
59,443
59.4,465
59.8,539
60.2,983
60.6,526
61,608
61.4,1029
61.8,397
62.2,347
62.6,328
63,359
63.4,306
63.8,303
64.2,368
64.6,360
65,372
65.4,330
65.8,357
66.2,407
66.6,1608
67,856
67.4,407
67.8,326
68.2,261
68.6,294
69,342
69.4,349
69.8,429
70.2,321
70.6,301
71,394
71.4,301
71.8,316
72.2,381
72.6,651
73,571
73.4,605
73.8,578
74.2,392
74.6,322
75,277
75.4,389
75.8,506
76.2,322
76.6,394
77,428
77.4,381
77.8,430
78.2,564
78.6,387
79,309
79.4,429
79.8,995
80.2,475
80.6,214
81,259
81.4,234
81.8,316
82.2,442
82.6,262
83,227
83.4,255
83.8,301
84.2,207
84.6,223
85,277
85.4,209
85.8,238
86.2,252
86.6,153
87,299
87.4,241
87.8,243
88.2,280
88.6,238
89,276
89.4,218
89.8,277
90.2,364
90.6,278
91,307
91.4,264
91.8,222
92.2,236
92.6,213
93,253
93.4,306
93.8,298
94.2,288
94.6,309
95,327
95.4,299
95.8,261
96.2,257
96.6,269
97,279
97.4,295
97.8,277
98.2,247
98.6,389
99,305
99.4,262
99.8,310
100.2,280
100.6,394
101,374
101.4,307
101.8,339
102.2,342
102.6,218
103,247
103.4,242
103.8,268
104.2,352
104.6,400
105,302
105.4,235
105.8,261
106.2,291
106.6,332
107,286
107.4,299
107.8,268
108.2,247
108.6,329
109,323
109.4,363
109.8,380
110.2,360
110.6,301
111,296
111.4,358
111.8,426
112.2,420
112.6,441
113,468
113.4,465
113.8,403
114.2,326
114.6,263
115,259
115.4,310
115.8,320
116.2,289
116.6,273
117,370
117.4,472
117.8,528
118.2,496
118.6,357
119,395
119.4,375
119.8,287
120,317