File: data/xrd_icdd_PDF/00-065-0726 (PD3).csv
2,25480
2.24,23973
2.48,19532
2.72,13941
2.96,9858
3.2,7557
3.44,6042
3.68,5225
3.92,4646
4.16,4132
4.4,3702
4.64,3284
4.88,2799
5.12,2352
5.36,2039
5.6,1804
5.84,1543
6.08,1383
6.32,1259
6.56,1046
6.8,1007
7.04,919
7.28,826
7.52,730
7.76,728
8,648
8.24,584
8.48,536
8.72,516
8.96,450
9.2,468
9.44,453
9.68,434
9.92,399
10.16,368
10.4,376
10.64,344
10.88,357
11.12,307
11.36,333
11.6,298
11.84,305
12.08,325
12.32,284
12.56,283
12.8,285
13.04,286
13.28,299
13.52,302
13.76,280
14,243
14.24,276
14.48,261
14.72,257
14.96,265
15.2,256
15.44,263
15.68,267
15.92,270
16.16,285
16.4,264
16.64,285
16.88,278
17.12,281
17.36,264
17.6,291
17.84,271
18.08,312
18.32,292
18.56,298
18.8,300
19.04,266
19.28,283
19.52,332
19.76,327
20,339
20.24,347
20.48,356
20.72,381
20.96,308
21.2,342
21.44,349
21.68,337
21.92,339
22.16,326
22.4,345
22.64,356
22.88,358
23.12,359
23.36,342
23.6,353
23.84,383
24.08,352
24.32,375
24.56,359
24.8,335
25.04,357
25.28,364
25.52,386
25.76,448
26,391
26.24,391
26.48,474
26.72,441
26.96,433
27.2,446
27.44,473
27.68,488
27.92,504
28.16,489
28.4,525
28.64,571
28.88,587
29.12,601
29.36,633
29.6,759
29.84,804
30.08,1009
30.32,1249
30.56,1390
30.8,1537
31.04,1863
31.28,1940
31.52,2091
31.76,2126
32,2037
32.24,1932
32.48,1801
32.72,1611
32.96,1669
33.2,1606
33.44,1765
33.68,1926
33.92,2111
34.16,2303
34.4,2454
34.64,2483
34.88,2592
35.12,2603
35.36,2695
35.6,2821
35.84,2827
36.08,2860
36.32,2705
36.56,2527
36.8,2152
37.04,1795
37.28,1396
37.52,1178
37.76,1005
38,792
38.24,667
38.48,562
38.72,479
38.96,454
39.2,432
39.44,397
39.68,393
39.92,395
40.16,315
40.4,365
40.64,323
40.88,365
41.12,313
41.36,323
41.6,349
41.84,348
42.08,310
42.32,309
42.56,321
42.8,326
43.04,334
43.28,322
43.52,314
43.76,314
44,350
44.24,379
44.48,378
44.72,345
44.96,410
45.2,418
45.44,445
45.68,455
45.92,517
46.16,569
46.4,631
46.64,725
46.88,776
47.12,820
47.36,835
47.6,762
47.84,731
48.08,628
48.32,633
48.56,563
48.8,548
49.04,473
49.28,473
49.52,391
49.76,421
50,355
50.24,385
50.48,378
50.72,355
50.96,351
51.2,350
51.44,377
51.68,358
51.92,376
52.16,346
52.4,347
52.64,330
52.88,378
53.12,400
53.36,399
53.6,455
53.84,410
54.08,501
54.32,524
54.56,588
54.8,619
55.04,736
55.28,876
55.52,924
55.76,1043
56,1066
56.24,1119
56.48,1151
56.72,1145
56.96,1044
57.2,966
57.44,844
57.68,678
57.92,675
58.16,630
58.4,521
58.64,484
58.88,443
59.12,416
59.36,409
59.6,429
59.84,415
60.08,381
60.32,460
60.56,444
60.8,570
61.04,585
61.28,625
61.52,739
61.76,789
62,804
62.24,890
62.48,916
62.72,928
62.96,953
63.2,836
63.44,791
63.68,694
63.92,644
64.16,606
64.4,565
64.64,555
64.88,501
65.12,503
65.36,560
65.6,563
65.84,622
66.08,633
66.32,752
66.56,754
66.8,817
67.04,819
67.28,955
67.52,1041
67.76,923
68,1010
68.24,936
68.48,875
68.72,861
68.96,782
69.2,692
69.44,639
69.68,550
69.92,510
70,468