File: data/xrd_icdd_PDF/00-060-0203 (PD3).csv
15,1980
15.32,1861
15.64,1926
15.96,1855
16.28,1904
16.6,1893
16.92,1865
17.24,1903
17.56,1976
17.88,1848
18.2,1858
18.52,1804
18.84,1867
19.16,1870
19.48,1814
19.8,1826
20.12,1767
20.44,1919
20.76,1804
21.08,1801
21.4,1847
21.72,1800
22.04,1809
22.36,2369
22.68,1762
23,1859
23.32,3211
23.64,1756
23.96,1696
24.28,1748
24.6,1782
24.92,1746
25.24,1725
25.56,1675
25.88,1723
26.2,1760
26.52,1863
26.84,3101
27.16,2325
27.48,1769
27.8,1729
28.12,1785
28.44,1700
28.76,1701
29.08,1726
29.4,1700
29.72,1713
30.04,1675
30.36,1685
30.68,1692
31,1727
31.32,1758
31.64,1729
31.96,1829
32.28,1963
32.6,2180
32.92,1778
33.24,1791
33.56,1884
33.88,1854
34.2,2060
34.52,4971
34.84,2684
35.16,2333
35.48,2749
35.8,11233
36.12,9204
36.44,2906
36.76,2762
37.08,6708
37.4,10805
37.72,2829
38.04,2536
38.36,4716
38.68,5480
39,2271
39.32,2038
39.64,1963
39.96,1944
40.28,1987
40.6,1980
40.92,1931
41.24,1978
41.56,1884
41.88,1958
42.2,1960
42.52,1943
42.84,2050
43.16,2050
43.48,2623
43.8,7050
44.12,4270
44.44,6552
44.76,3890
45.08,5024
45.4,3063
45.72,2317
46.04,1944
46.36,1788
46.68,1897
47,1890
47.32,2020
47.64,4155
47.96,2109
48.28,1852
48.6,1846
48.92,1814
49.24,1836
49.56,1817
49.88,1811
50.2,1745
50.52,1781
50.84,1772
51.16,1765
51.48,1767
51.8,1857
52.12,1878
52.44,1977
52.76,1960
53.08,1833
53.4,1751
53.72,1793
54.04,1837
54.36,2005
54.68,3231
55,2184
55.32,2431
55.64,3985
55.96,2187
56.28,1863
56.6,1885
56.92,1886
57.24,1959
57.56,1905
57.88,2510
58.2,2207
58.52,2206
58.84,2012
59.16,1947
59.48,2282
59.8,4430
60.12,2424
60.44,2007
60.76,2002
61.08,2614
61.4,2047
61.72,1943
62.04,2017
62.36,2985
62.68,2418
63,1950
63.32,1895
63.64,1905
63.96,1965
64.28,2243
64.6,4224
64.92,2722
65.24,2383
65.56,2003
65.88,1851
66.2,1911
66.52,1907
66.84,2234
67.16,3931
67.48,2337
67.8,2021
68.12,1974
68.44,2014
68.76,1992
69.08,2054
69.4,2397
69.72,3999
70.04,2451
70.36,2090
70.68,2060
71,2094
71.32,2024
71.64,1927
71.96,1823
72.28,1902
72.6,1894
72.92,2041
73.24,2678
73.56,2725
73.88,2104
74.2,2070
74.52,2115
74.84,2154
75.16,2277
75.48,2842
75.8,2424
76.12,3046
76.44,2708
76.76,2110
77.08,1966
77.4,1835
77.72,1909
78.04,1921
78.36,1995
78.68,1995
79,2034
79.32,2590
79.64,2379
79.96,1976
80.28,1945
80.6,1981
80.92,2169
81.24,2213
81.56,2626
81.88,2826
82.2,2401
82.52,2869
82.84,2340
83.16,2132
83.48,2034
83.8,1847
84.12,1892
84.44,1813
84.76,1874
85.08,1841
85.4,1802
85.72,1859
86.04,1824
86.36,1793
86.68,1820
87,1854
87.32,1969
87.64,1924
87.96,1857
88.28,1921
88.6,2102
88.92,2238
89.24,2014
89.56,1901
89.88,1923
90.2,1958
90.52,1846
90.84,1859
91.16,1813
91.48,1928
91.8,1855
92.12,1880
92.44,1832
92.76,1929
93.08,1833
93.4,1874
93.72,1935
94.04,1880
94.36,1930
94.68,2123
95,2292
95.32,2236
95.64,1910
95.96,1963
96.28,2092
96.6,2062
96.92,1950
97.24,1973
97.56,1929
97.88,2017
98.2,2291
98.52,2794
98.84,2497
99.16,2074
99.48,2118
99.8,2257
100.12,2163
100.44,1945
100.76,1916
101.08,1964
101.4,2018
101.72,2022
102.04,2268
102.36,2289
102.68,2130
103,2007
103.32,1908
103.64,1903
103.96,2021
104.28,1952
104.6,2003
104.92,2203
105.24,1982
105.56,1868
105.88,2097
106.2,2111
106.52,2121
106.64,2096