File: data/xrd_icdd_PDF/00-059-0727 (PD3).csv
5.021,2042
5.421,1952
5.821,1840
6.221,1686
6.621,1530
7.021,1518
7.421,1390
7.821,1409
8.221,1304
8.621,1294
9.021,1198
9.421,1114
9.821,1113
10.221,1052
10.621,1067
11.021,1011
11.421,967
11.821,992
12.221,891
12.621,937
13.021,1110
13.421,2792
13.821,2162
14.221,14851
14.621,1479
15.021,828
15.421,791
15.821,847
16.221,974
16.621,3593
17.021,1071
17.421,863
17.821,797
18.221,734
18.621,776
19.021,719
19.421,756
19.821,733
20.221,709
20.621,686
21.021,706
21.421,711
21.821,701
22.221,720
22.621,796
23.021,748
23.421,2554
23.821,715
24.221,720
24.621,723
25.021,781
25.421,10190
25.821,777
26.221,733
26.621,7035
27.021,1181
27.421,49589
27.821,31032
28.221,896
28.621,2167
29.021,33279
29.421,792
29.821,748
30.221,760
30.621,1043
31.021,28881
31.421,756
31.821,697
32.221,608
32.621,620
33.021,3608
33.421,1022
33.821,19231
34.221,874
34.621,545
35.021,1984
35.421,1704
35.821,1140
36.221,765
36.621,610
37.021,852
37.421,1963
37.821,1755
38.221,719
38.621,468
39.021,478
39.421,604
39.821,476
40.221,618
40.621,795
41.021,571
41.421,1532
41.821,2980
42.221,631
42.621,1386
43.021,782
43.421,645
43.821,1383
44.221,1954
44.621,729
45.021,575
45.421,604
45.821,2013
46.221,988
46.621,11897
47.021,1296
47.421,5598
47.821,5859
48.221,4146
48.621,865
49.021,889
49.421,5503
49.821,1444
50.221,1840
50.621,3183
51.021,5508
51.421,851
51.821,2643
52.221,6256
52.621,686
53.021,647
53.421,649
53.821,1033
54.221,923
54.621,8913
55.021,2182
55.421,917
55.821,713
56.221,882
56.621,7573
57.021,1929
57.421,2168
57.821,1704
58.221,652
58.621,617
59.021,558
59.421,969
59.821,1826
60.221,992
60.621,2472
61.021,767
61.421,1387
61.821,3758
62.221,5323
62.621,2367
63.021,765
63.421,3167
63.821,1946
64.221,742
64.621,2999
65.021,1073
65.421,649
65.821,1727
66.221,792
66.621,1950
67.021,1131
67.421,1596
67.821,1237
68.221,698
68.621,1305
69.021,852
69.421,833
69.821,775
70.221,507
70.621,505
71.021,667
71.421,1428
71.821,978
72.221,2287
72.621,1091
73.021,924
73.421,1197
73.821,982
74.221,1952
74.621,1037
75.021,2378
75.421,2008
75.821,1247
76.221,5728
76.621,999
77.021,3623
77.421,4763
77.821,2085
78.221,719
78.621,1535
79.021,1501
79.421,1356
79.821,1215
80.221,994
80.621,1583
81.021,1107
81.421,804
81.821,1005
82.221,1253
82.621,1928
83.021,1978
83.421,1322
83.821,658
84.221,633
84.621,714
85.021,1018
85.421,849
85.821,597
86.221,582
86.621,720
87.021,1157
87.421,2104
87.821,2064
88.221,1465
88.621,640
89.021,565
89.421,509
89.821,644
90.221,3897
90.621,1532
91.021,2444
91.421,1273
91.821,1288
92.221,1932
92.621,773
93.021,625
93.421,1075
93.821,932
94.221,688
94.621,1328
95.021,689
95.421,644
95.821,941
96.221,719
96.621,700
97.021,1235
97.421,1567
97.821,1434
98.221,1150
98.621,801
99.021,724
99.421,1092
99.821,1322
100.221,750
100.621,671
101.021,1365
101.421,1017
101.821,955
102.221,763
102.621,896
103.021,867
103.421,874
103.821,1557
104.221,1915
104.621,1500
105.021,1070
105.421,1296
105.821,1050
106.221,913
106.621,1048
107.021,1035
107.421,987
107.821,910
108.221,975
108.621,928
109.021,995
109.421,899
109.821,1306
110.221,1385
110.621,1220
111.021,1581
111.421,1166
111.821,1252
112.221,1613
112.621,1954
113.021,1566
113.421,1082
113.821,1811
114.221,1514
114.621,1840
115.021,2077
115.421,1894
115.821,1368
116.221,1072
116.621,1591
117.021,1880
117.421,2188
117.821,1331
118.221,994
118.621,948
119.021,992
119.421,950
119.821,1185
120.021,1262