File: data/xrd_icdd_PDF/00-064-0239 (PD3).csv
20.0154,121.0002
20.2534,105.4969
20.4914,113.8993
20.7294,101.6341
20.9674,90.0771
21.2054,106.9592
21.4434,100.0679
21.6814,97.0858
21.9194,86.3577
22.1574,139.9763
22.3954,86.0481
22.6334,89.6304
22.8714,102.9874
23.1094,91.1733
23.3474,89.5746
23.5854,83.2783
23.8234,85.5144
24.0614,78.6596
24.2994,89.2698
24.5374,75.0462
24.7754,70.0041
25.0134,75.2082
25.2514,77.3969
25.4894,62.6867
25.7274,67.0494
25.9654,61.892
26.2034,70.5508
26.4414,67.5968
26.6794,54.638
26.9174,82.7987
27.1554,77.7924
27.3934,63.4889
27.6314,64.5156
27.8694,51.2342
28.1074,55.5486
28.3454,54.1391
28.5834,40.339
28.8214,57.4484
29.0594,56.6612
29.2974,66.6257
29.5354,67.6453
29.7734,107.3214
30.0114,62.7037
30.2494,64.4162
30.4874,57.5046
30.7254,57.8817
30.9634,52.6226
31.2014,55.2135
31.4394,50.776
31.6774,44.1832
31.9154,60.657
32.1534,49.0325
32.3914,55.5285
32.6294,42.747
32.8674,53.317
33.1054,45.8813
33.3434,42.5433
33.5814,50.6597
33.8194,53.7027
34.0574,53.6245
34.2954,54.6432
34.5334,39.1815
34.7714,48.9962
35.0094,42.8638
35.2474,49.9702
35.4854,58.6103
35.7234,325.463
35.9614,121.8642
36.1994,53.997
36.4374,45.5571
36.6754,34.3375
36.9134,50.5749
37.1514,44.3341
37.3894,42.7362
37.6274,41.4091
37.8654,43.8462
38.1034,41.1733
38.3414,50.1214
38.5794,64.5346
38.8174,38.325
39.0554,53.7683
39.2934,72.8813
39.5314,72.8307
39.7694,63.0002
40.0074,68.404
40.2454,72.0558
40.4834,99.6454
40.7214,114.993
40.9594,717.1697
41.1974,1143.084
41.4354,132.6348
41.6734,82.193
41.9114,127.3621
42.1494,571.7083
42.3874,128.1963
42.6254,170.9699
42.8634,1127.136
43.1014,215.8879
43.3394,72.7666
43.5774,80.3746
43.8154,85.9567
44.0534,87.1539
44.2914,123.0107
44.5294,723.3867
44.7674,217.8945
45.0054,106.3437
45.2434,291.7706
45.4814,145.2835
45.7194,513.4049
45.9574,1098.858
46.1954,148.9544
46.4334,79.3937
46.6714,52.7234
46.9094,35.9982
47.1474,39.5473
47.3854,48.3608
47.6234,43.9976
47.8614,41.4056
48.0994,42.9672
48.3374,41.6442
48.5754,37.1565
48.8134,45.4117
49.0514,48.2321
49.2894,48.2452
49.5274,128.9625
49.7654,329.6894
50.0034,83.1294
50.2414,49.9972
50.4794,41.3056
50.7174,51.3523
50.9554,113.2275
51.1934,356.8159
51.4314,159.5892
51.6694,207.8245
51.9074,394.8951
52.1454,78.8301
52.3834,41.3176
52.6214,42.5204
52.8594,42.2897
53.0974,37.1311
53.3354,28.3574
53.5734,28.8924
53.8114,33.9981
54.0494,42.8179
54.2874,79.8273
54.5254,155.9105
54.7634,48.1583
55.0014,38.0133
55.2394,32.7941
55.4774,26.4087
55.7154,23.8107
55.9534,32.7992
56.1914,32.8394
56.4294,43.8683
56.6674,21.0036
56.9054,29.6112
57.1434,39.7321
57.3814,45.1034
57.6194,32.6147
57.8574,79.4737
58.0954,55.8235
58.3334,84.151
58.5714,44.6263
58.8094,32.8609
59.0474,50.6752
59.2854,59.5288
59.5234,36.0707
59.7614,64.0459
59.9994,40.1026
60.2374,33.1506
60.4754,20.8494
60.7134,25.7239
60.9514,36.2517
61.1894,36.1622
61.4274,45.439
61.6654,65.3792
61.9034,34.5656
62.1414,24.8125
62.3794,28.7193
62.6174,21.7847
62.8554,23.3162
63.0934,40.2833
63.3314,38.0682
63.5694,24.9163
63.8074,25.5259
64.0454,35.4766
64.2834,40.9087
64.5214,39.1275
64.7594,67.7078
64.9974,60.1442
65.2354,41.9243
65.4734,36.4071
65.7114,93.6107
65.9494,85.5546
66.1874,32.9688
66.4254,35.8076
66.6634,30.776
66.9014,45.5703
67.1394,39.2448
67.3774,33.1414
67.6154,31.9909
67.8534,26.6238
68.0914,19.42
68.3294,27.0047
68.5674,25.3144
68.8054,21.5391
69.0434,30.2056
69.2814,41.7065
69.5194,37.3817
69.7574,38.2241
69.9954,24.9929
70.2334,32.541
70.4714,59.5429
70.7094,36.7018
70.9474,26.7134
71.1854,26.027
71.4234,24.4995
71.6614,28.0771
71.8994,33.1108
72.1374,51.6325
72.3754,53.6543
72.6134,46.836
72.8514,94.6954
73.0894,64.0452
73.3274,61.8877
73.5654,134.3865
73.8034,201.6955
74.0414,254.0523
74.2794,153.1252
74.5174,55.4018
74.7554,46.157
74.9934,39.4982
75.2314,74.2731
75.4694,65.4497
75.7074,78.4199
75.9454,72.6317
76.1834,71.3191
76.4214,78.1084
76.6594,40.7312
76.8974,46.8738
77.1354,100.6548
77.3734,139.2436
77.6114,82.9521
77.8494,36.9966
78.0874,20.156
78.3254,36.8417
78.5634,27.5089
78.8014,41.5594
79.0394,84.0515
79.2774,92.1893
79.5154,121.7936
79.7534,94.7093
79.9914,55.1178
80.2294,49.4552
80.4674,28.5265
80.7054,23.0936
80.9434,27.1589
81.1814,22.0045
81.4194,25.0043
81.6574,33.1668
81.8954,28.522
82.1334,23.5957
82.3714,32.3652
82.6094,34.9353
82.8474,39.2975
83.0854,22.8041
83.3234,35.3221
83.5614,36.4868
83.7994,66.7902
84.0374,72.9119
84.2754,47.1518
84.5134,31.2485
84.7514,31.1306
84.9894,28.1811
85.2274,28.484
85.4654,31.5993
85.7034,40.3322
85.9414,42.0178
86.1794,106.1262
86.4174,75.2468
86.6554,40.1819
86.8934,48.0681
87.1314,122.5972
87.3694,234.2495
87.6074,140.5268
87.8454,76.2335
88.0834,42.2702
88.3214,49.1921
88.5594,66.0313
88.7974,86.6364
89.0354,135.4346
89.2734,114.3565
89.5114,85.8687
89.7494,84.2327
89.9874,42.6758
90.2254,33.3624
90.4634,36.8164
90.7014,40.191
90.9224,27.0047