File: data/xrd_icdd_PDF/00-065-0440 (PD3).csv
5,49
5.4,47
5.8,31
6.2,37
6.6,58
7,47
7.4,44
7.8,51
8.2,33
8.6,54
9,58
9.4,49
9.8,64
10.2,69
10.6,68
11,63
11.4,58
11.8,61
12.2,62
12.6,61
13,78
13.4,61
13.8,64
14.2,82
14.6,68
15,67
15.4,81
15.8,59
16.2,79
16.6,78
17,72
17.4,90
17.8,76
18.2,75
18.6,89
19,72
19.4,81
19.8,81
20.2,102
20.6,369
21,115
21.4,86
21.8,122
22.2,191
22.6,538
23,120
23.4,83
23.8,83
24.2,102
24.6,92
25,89
25.4,99
25.8,94
26.2,82
26.6,98
27,98
27.4,103
27.8,107
28.2,97
28.6,114
29,97
29.4,102
29.8,124
30.2,162
30.6,916
31,388
31.4,3820
31.8,274
32.2,135
32.6,111
33,117
33.4,107
33.8,112
34.2,98
34.6,110
35,125
35.4,365
35.8,253
36.2,144
36.6,137
37,215
37.4,3657
37.8,263
38.2,142
38.6,103
39,107
39.4,116
39.8,110
40.2,115
40.6,94
41,140
41.4,177
41.8,428
42.2,1378
42.6,3462
43,321
43.4,273
43.8,627
44.2,5628
44.6,344
45,207
45.4,207
45.8,1314
46.2,352
46.6,146
47,112
47.4,115
47.8,106
48.2,506
48.6,118
49,102
49.4,99
49.8,111
50.2,381
50.6,99
51,122
51.4,100
51.8,84
52.2,80
52.6,88
53,98
53.4,102
53.8,81
54.2,97
54.6,91
55,83
55.4,92
55.8,112
56.2,80
56.6,78
57,94
57.4,87
57.8,99
58.2,87
58.6,97
59,115
59.4,599
59.8,122
60.2,148
60.6,1114
61,414
61.4,123
61.8,89
62.2,92
62.6,104
63,632
63.4,136
63.8,293
64.2,751
64.6,154
65,243
65.4,210
65.8,222
66.2,93
66.6,80
67,90
67.4,97
67.8,80
68.2,96
68.6,124
69,99
69.4,112
69.8,983
70.2,179
70.6,93
71,75
71.4,75
71.8,92
72.2,68
72.6,88
73,130
73.4,768
73.8,114
74.2,71
74.6,90
75,125
75.4,608
75.8,259
76.2,82
76.6,71
77,94
77.4,67
77.8,81
78.2,108
78.6,81
79,89
79.4,89
79.8,605
80.2,153
80.6,88
81,74
81.4,87
81.8,90
82.2,110
82.6,660
83,151
83.4,537
83.8,652
84.2,195
84.6,95
85,93
85.4,86
85.8,83
86.2,93
86.6,277
87,96
87.4,90
87.8,92
88.2,109
88.6,76
89,92
89.4,106
89.8,83
90.2,79
90.6,46
91,73
91.4,88
91.8,211
92.2,100
92.6,111
93,554
93.4,111
93.8,83
94.2,92
94.6,78
95,87
95.4,58
95.8,95
96.2,103
96.6,90
97,194
97.4,1034
97.8,179
98.2,99
98.6,109
99,138
99.4,100
99.8,85
100.2,118
100.6,65
101,72
101.4,88
101.8,92
102.2,81
102.6,297
103,72
103.4,78
103.8,95
104.2,94
104.6,100
105,134
105.4,488
105.8,100
106.2,98
106.6,97
107,96
107.4,79
107.8,95
108.2,107
108.6,153
109,191
109.4,150
109.8,142
110.2,103
110.6,100
111,83
111.4,117
111.8,103
112.2,95
112.6,139
113,125
113.4,214
113.8,533
114.2,134
114.6,130
115,220
115.4,118
115.8,163
116.2,114
116.6,94
117,119
117.4,337
117.8,137
118.2,196
118.6,171
119,99
119.4,111
119.8,114
120,161