File: data/xrd_icdd_PDF/00-064-0241 (PD3).csv
20.0324,93.4953
20.2704,95.5972
20.5084,110.5224
20.7464,93.1954
20.9844,81.0864
21.2224,99.5812
21.4604,103.9652
21.6984,151.2419
21.9364,101.7201
22.1744,80.5588
22.4124,86.6435
22.6504,87.5029
22.8884,90.9937
23.1264,84.1865
23.3644,77.8586
23.6024,82.9416
23.8404,70.1038
24.0784,83.3829
24.3164,69.4352
24.5544,61.5146
24.7924,64.1414
25.0304,67.512
25.2684,65.5921
25.5064,53.9386
25.7444,63.342
25.9824,52.3254
26.2204,70.877
26.4584,54.6169
26.6964,66.2681
26.9344,57.8277
27.1724,43.9148
27.4104,60.8461
27.6484,48.4876
27.8864,48.0071
28.1244,52.2445
28.3624,48.0975
28.6004,45.4704
28.8384,49.2995
29.0764,62.3247
29.3144,95.3005
29.5524,45.3824
29.7904,57.6047
30.0284,54.2954
30.2664,49.6708
30.5044,41.0738
30.7424,52.3945
30.9804,40.1419
31.2184,37.7039
31.4564,45.1898
31.6944,37.3005
31.9324,45.556
32.1704,37.3514
32.4084,41.267
32.6464,41.3471
32.8844,39.5313
33.1224,38.6401
33.3604,43.746
33.5984,46.008
33.8364,40.1378
34.0744,38.7181
34.3124,47.6923
34.5504,52.8989
34.7884,58.9255
35.0264,133.0898
35.2644,490.3655
35.5024,69.5566
35.7404,55.8144
35.9784,39.7872
36.2164,33.9468
36.4544,41.9785
36.6924,37.3019
36.9304,33.9981
37.1684,38.5331
37.4064,36.6314
37.6444,42.9146
37.8824,35.6416
38.1204,33.594
38.3584,34.0706
38.5964,49.0833
38.8344,73.2283
39.0724,54.4319
39.3104,86.0458
39.5484,70.8845
39.7864,65.0253
40.0244,82.9954
40.2624,152.3025
40.5004,1841.477
40.7384,465.9625
40.9764,107.6663
41.2144,68.7379
41.4524,95.9947
41.6904,816.4429
41.9284,1517
42.1664,154.8899
42.4044,59.9738
42.6424,48.987
42.8804,49.7239
43.1184,56.9575
43.3564,86.6058
43.5944,58.2118
43.8324,133.6402
44.0704,992.6514
44.3084,382.1807
44.5464,86.7412
44.7844,82.6485
45.0224,152.1034
45.2604,1983.534
45.4984,289.9926
45.7364,73.4067
45.9744,47.083
46.2124,39.883
46.4504,42.0649
46.6884,22.3077
46.9264,35.8436
47.1644,36.4057
47.4024,27.1642
47.6404,27.8464
47.8784,24.5891
48.1164,30.079
48.3544,42.5844
48.5924,134.1236
48.8304,376.0634
49.0684,43.9426
49.3064,38.3819
49.5444,42.9076
49.7824,48.5035
50.0204,34.0159
50.2584,38.1025
50.4964,104.9517
50.7344,553.6872
50.9724,533.9589
51.2104,63.2237
51.4484,39.7832
51.6864,35.3035
51.9244,22.8483
52.1624,25.7243
52.4004,16.6875
52.6384,19.6451
52.8764,20.6012
53.1144,21.5569
53.3524,27.937
53.5904,42.6
53.8284,153.2438
54.0664,36.4976
54.3044,25.8114
54.5424,22.3627
54.7804,18.6663
55.0184,17.7268
55.2564,18.4486
55.4944,12.996
55.7324,27.6982
55.9704,22.662
56.2084,15.726
56.4464,14.1543
56.6844,52.7109
56.9224,56.0551
57.1604,27.7627
57.3984,21.9988
57.6364,50.0111
57.8744,41.9523
58.1124,22.4032
58.3504,30.0833
58.5884,99.9515
58.8264,93.2304
59.0644,48.684
59.3024,35.212
59.5404,20.8512
59.7784,18.5341
60.0164,19.7643
60.2544,21.5181
60.4924,24.8606
60.7304,56.2371
60.9684,20.0549
61.2064,23.3174
61.4444,20.0035
61.6824,41.4726
61.9204,21.7667
62.1584,18.6786
62.3964,9.2187
62.6344,16.7428
62.8724,16.9991
63.1104,15.0056
63.3484,19.8769
63.5864,18.9763
63.8244,21.6704
64.0624,51.7997
64.3004,54.9764
64.5384,24.254
64.7764,32.9897
65.0144,148.1032
65.2524,82.4813
65.4904,36.2497
65.7284,27.9921
65.9664,30.915
66.2044,26.4577
66.4424,21.6333
66.6804,23.8586
66.9184,20.6704
67.1564,9.8943
67.3944,18.3002
67.6324,15.4512
67.8704,20.4572
68.1084,21.6577
68.3464,26.0045
68.5844,51.4341
68.8224,86.0547
69.0604,37.1629
69.2984,15.1446
69.5364,12.9707
69.7744,16.9924
70.0124,28.0716
70.2504,27.4895
70.4884,34.4642
70.7264,30.3877
70.9644,22.4315
71.2024,46.2387
71.4404,34.4019
71.6784,34.4862
71.9164,105.9784
72.1544,165.6603
72.3924,136.813
72.6304,74.3919
72.8684,184.4288
73.1064,136.6872
73.3444,29.0041
73.5824,19.4452
73.8204,39.7849
74.0584,41.0231
74.2964,43.824
74.5344,104.561
74.7724,67.8717
75.0104,33.2194
75.2484,75.7977
75.4864,127.1694
75.7244,114.3487
75.9624,62.0584
76.2004,19.7894
76.4384,21.9373
76.6764,23.004
76.9144,20.6508
77.1524,19.7926
77.3904,24.4334
77.6284,27.7578
77.8664,113.2801
78.1044,71.5395
78.3424,41.3293
78.5804,89.8384
78.8184,79.4611
79.0564,32.9655
79.2944,15.4848
79.5324,22.938
79.7704,19.9943
80.0084,25.8396
80.2464,13.2832
80.4844,16.0231
80.7224,22.5909
80.9604,21.173
81.1984,20.0923
81.4364,15.1155
81.6744,24.9893
81.9124,30.7433
82.1504,97.6668
82.3884,53.3241
82.6264,27.4704
82.8644,18.6128
83.1024,22.1213
83.3404,21.2757
83.5784,24.8122
83.8164,19.5323
84.0544,18.1728
84.2924,30.6395
84.5304,29.5799
84.7684,109.1916
85.0064,81.7606
85.2444,109.9
85.4824,92.4798
85.7204,59.7583
85.9584,92.4375
86.1964,93.9265
86.4344,72.9911
86.6724,36.9533
86.9104,29.8422
87.1484,19.9039
87.3864,46.8715
87.6244,166.2694
87.8624,104.1081
88.1004,58.8134
88.3384,78.4943
88.5764,49.7505
88.8144,35.7581
89.0524,20.5013
89.2904,18.8156
89.5284,20.5408
89.7664,19.3242
90.0044,18.3236
90.2424,17.6313
90.4804,17.2268
90.7184,16.4302
90.9224,12.3921