File: data/xrd_icdd_PDF/00-066-0496 (PD3).csv
5,97
5.4,93
5.8,79
6.2,62
6.6,64
7,82
7.4,52
7.8,98
8.2,63
8.6,63
9,56
9.4,94
9.8,78
10.2,60
10.6,77
11,54
11.4,62
11.8,91
12.2,86
12.6,65
13,67
13.4,56
13.8,63
14.2,54
14.6,51
15,79
15.4,51
15.8,75
16.2,65
16.6,45
17,63
17.4,69
17.8,39
18.2,76
18.6,59
19,41
19.4,58
19.8,92
20.2,120
20.6,1026
21,137
21.4,141
21.8,415
22.2,1656
22.6,144
23,70
23.4,66
23.8,61
24.2,52
24.6,39
25,65
25.4,69
25.8,54
26.2,65
26.6,65
27,28
27.4,61
27.8,46
28.2,67
28.6,87
29,72
29.4,135
29.8,209
30.2,1136
30.6,1225
31,3215
31.4,583
31.8,183
32.2,91
32.6,64
33,64
33.4,53
33.8,36
34.2,70
34.6,83
35,118
35.4,895
35.8,246
36.2,98
36.6,126
37,427
37.4,3954
37.8,260
38.2,122
38.6,98
39,86
39.4,85
39.8,67
40.2,98
40.6,91
41,182
41.4,326
41.8,1912
42.2,9457
42.6,896
43,429
43.4,745
43.8,11577
44.2,1492
44.6,505
45,3654
45.4,697
45.8,188
46.2,118
46.6,73
47,63
47.4,78
47.8,238
48.2,128
48.6,56
49,37
49.4,60
49.8,331
50.2,219
50.6,115
51,58
51.4,60
51.8,29
52.2,65
52.6,47
53,28
53.4,42
53.8,68
54.2,73
54.6,36
55,39
55.4,76
55.8,137
56.2,59
56.6,51
57,50
57.4,84
57.8,117
58.2,144
58.6,749
59,248
59.4,174
59.8,1167
60.2,471
60.6,673
61,157
61.4,93
61.8,94
62.2,132
62.6,729
63,492
63.4,2127
63.8,619
64.2,221
64.6,239
65,1662
65.4,157
65.8,109
66.2,76
66.6,71
67,74
67.4,74
67.8,90
68.2,118
68.6,216
69,178
69.4,921
69.8,469
70.2,332
70.6,103
71,100
71.4,77
71.8,79
72.2,94
72.6,153
73,1007
73.4,199
73.8,158
74.2,480
74.6,332
75,308
75.4,287
75.8,123
76.2,101
76.6,80
77,102
77.4,193
77.8,89
78.2,100
78.6,88
79,114
79.4,420
79.8,408
80.2,115
80.6,113
81,263
81.4,636
81.8,260
82.2,792
82.6,1008
83,217
83.4,276
83.8,311
84.2,158
84.6,124
85,98
85.4,140
85.8,282
86.2,290
86.6,116
87,87
87.4,93
87.8,62
88.2,104
88.6,104
89,170
89.4,92
89.8,56
90.2,70
90.6,95
91,91
91.4,390
91.8,157
92.2,834
92.6,169
93,88
93.4,82
93.8,73
94.2,59
94.6,70
95,99
95.4,121
95.8,333
96.2,427
96.6,1300
97,209
97.4,459
97.8,144
98.2,148
98.6,312
99,104
99.4,70
99.8,96
100.2,819
100.6,132
101,85
101.4,78
101.8,101
102.2,94
102.6,91
103,83
103.4,166
103.8,800
104.2,221
104.6,224
105,107
105.4,89
105.8,71
106.2,97
106.6,69
107,205
107.4,259
107.8,94
108.2,142
108.6,366
109,211
109.4,111
109.8,65
110.2,106
110.6,129
111,143
111.4,221
111.8,125
112.2,335
112.6,496
113,298
113.4,420
113.8,139
114.2,115
114.6,138
115,208
115.4,226
115.8,571
116.2,168
116.6,277
117,458
117.4,256
117.8,155
118.2,327
118.6,284
119,168
119.4,122
119.8,98
120,85