File: data/xrd_icdd_PDF/00-058-0292 (PD3).csv
16,3955
16.265,3957
16.53,3985
16.795,3973
17.06,3919
17.325,3948
17.59,4073
17.855,4093
18.12,4001
18.385,4032
18.65,4061
18.915,3979
19.18,3987
19.445,3976
19.71,3971
19.975,3993
20.24,4341
20.505,6295
20.77,5329
21.035,5534
21.3,6757
21.565,4625
21.83,3724
22.095,3402
22.36,3269
22.625,3160
22.89,3078
23.155,3093
23.42,3167
23.685,3145
23.95,3562
24.215,7062
24.48,3519
24.745,5875
25.01,2836
25.275,2780
25.54,3356
25.805,4758
26.07,2656
26.335,2586
26.6,2499
26.865,2577
27.13,2663
27.395,2775
27.66,2952
27.925,7720
28.19,3101
28.455,2551
28.72,2351
28.985,2283
29.25,2291
29.515,2724
29.78,5267
30.045,2441
30.31,2200
30.575,2332
30.84,2215
31.105,2203
31.37,2193
31.635,2291
31.9,2756
32.165,3113
32.43,7481
32.695,6093
32.96,9156
33.225,12092
33.49,3171
33.755,2373
34.02,2254
34.285,2316
34.55,2448
34.815,3110
35.08,4138
35.345,16876
35.61,8266
35.875,13392
36.14,10762
36.405,3829
36.67,2756
36.935,2315
37.2,2399
37.465,3287
37.73,14103
37.995,4387
38.26,2491
38.525,2103
38.79,2008
39.055,2104
39.32,2356
39.585,3817
39.85,8908
40.115,2565
40.38,2259
40.645,2579
40.91,4746
41.175,26232
41.44,3928
41.705,4038
41.97,2474
42.235,3270
42.5,7482
42.765,3451
43.03,2408
43.295,4275
43.56,2305
43.825,3362
44.09,5372
44.355,16942
44.62,7410
44.885,2676
45.15,1911
45.415,1693
45.68,1682
45.945,1638
46.21,1703
46.475,1896
46.74,5918
47.005,1976
47.27,1566
47.535,1450
47.8,1423
48.065,1461
48.33,1570
48.595,1561
48.86,1691
49.125,3742
49.39,1981
49.655,2042
49.92,1462
50.185,1344
50.45,1352
50.715,1439
50.98,1416
51.245,1362
51.51,1317
51.775,1329
52.04,1458
52.305,1847
52.57,1685
52.835,3432
53.1,1913
53.365,1771
53.63,4191
53.895,2191
54.16,1538
54.425,1328
54.69,1273
54.955,1281
55.22,1481
55.485,3120
55.75,1384
56.015,1285
56.28,1248
56.545,1387
56.81,1559
57.075,3688
57.34,2035
57.605,1776
57.87,3427
58.135,1647
58.4,2074
58.665,2697
58.93,2129
59.195,2697
59.46,1416
59.725,1255
59.99,1216
60.255,1278
60.52,1862
60.785,1241
61.05,1158
61.315,1179
61.58,1186
61.845,1158
62.11,1185
62.375,1161
62.64,1225
62.905,1313
63.17,1501
63.435,2141
63.7,5180
63.965,1838
64.23,1550
64.495,1731
64.76,1984
65.025,1779
65.29,2646
65.555,4046
65.82,9440
66.085,5530
66.35,2421
66.615,1792
66.88,1576
67.145,1797
67.41,2145
67.675,1382
67.94,1333
68.205,1419
68.47,1677
68.735,1693
69,2251
69.265,2847
69.53,2682
69.795,1605
70.06,1556
70.325,1521
70.59,1681
70.855,2981
71.12,1758
71.385,2495
71.65,3592
71.915,1551
72.18,1351
72.445,1351
72.71,1462
72.975,1786
73.24,4076
73.505,3800
73.77,1790
74.035,1638
74.3,2076
74.565,3543
74.83,1699
75.095,1539
75.36,1695
75.625,3464
75.89,2244
76.155,2528
76.42,2035
76.685,2226
76.95,1636
77.215,1359
77.48,1498
77.745,1424
78.01,1412
78.275,1521
78.54,1868
78.805,4551
79.07,1770
79.335,1511
79.6,1456
79.865,1748
80.13,2842
80.395,3464
80.66,3809
80.925,2460
81.19,1628
81.455,1978
81.72,1581
81.985,1306
82.25,1421
82.515,1619
82.78,1594
83.045,1373
83.31,1333
83.575,1297
83.84,1751
84.105,1537
84.37,1219
84.635,1137
84.9,1117
85.165,1145
85.43,1159
85.695,1276
85.96,1271
86.225,1217
86.49,1182
86.755,1124
87.02,1191
87.285,1255
87.55,1549
87.815,2046
88.08,2278
88.345,1753
88.61,1427
88.875,1575
89.14,2530
89.405,3486
89.67,1647
89.935,1349
90.2,1260
90.465,1192
90.73,1169
90.995,1183
91.26,1203
91.525,1332
91.79,1407
92.055,1442
92.32,1740
92.585,1671
92.85,1372
93.115,1268
93.38,1282
93.645,1379
93.91,1462
94.175,1664
94.44,3603
94.705,2054
94.94,1614