File: data/xrd_icdd_PDF/00-069-0819 (PD3).csv
5,1424
5.33,1413
5.66,1302
5.98999,1248
6.31999,1147
6.64999,1156
6.97999,1202
7.30998,1164
7.63998,1112
7.96998,1098
8.29998,1158
8.62998,1134
8.95997,1155
9.28997,1144
9.61997,1137
9.94997,1095
10.27996,1120
10.60996,1087
10.93996,1095
11.26996,1115
11.59996,1120
11.92995,1103
12.25995,1094
12.58995,1162
12.91995,1113
13.24995,1121
13.57994,1104
13.90994,1117
14.23994,1154
14.56994,1140
14.89993,1144
15.22993,1193
15.55993,1128
15.88993,1202
16.21993,1179
16.54992,1201
16.87992,1236
17.20992,1200
17.53992,1229
17.86991,1240
18.19991,1282
18.52991,1244
18.85991,1266
19.18991,1380
19.5199,1350
19.8499,1382
20.1799,1370
20.5099,1436
20.83989,1428
21.16989,1477
21.49989,1564
21.82989,2241
22.15989,3160
22.48988,3296
22.81988,2391
23.14988,1628
23.47988,1527
23.80987,1605
24.13987,1541
24.46987,1486
24.79987,1507
25.12987,1494
25.45986,1599
25.78986,1484
26.11986,1470
26.44986,1549
26.77985,1478
27.10985,1519
27.43985,1478
27.76985,1431
28.09985,1660
28.42984,4726
28.75984,1486
29.08984,1394
29.41984,1375
29.74984,1345
30.07983,1338
30.40983,1312
30.73983,1255
31.06983,1354
31.39982,1331
31.72982,1258
32.05982,1327
32.38982,1325
32.71982,1586
33.04981,6015
33.37981,6309
33.70981,2029
34.03981,8099
34.3698,2368
34.6998,1401
35.0298,1288
35.3598,1775
35.6898,46925
36.01979,2113
36.34979,1223
36.67979,1361
37.00979,3712
37.33978,2196
37.66978,8847
37.99978,13001
38.32978,2701
38.65978,26577
38.98977,1894
39.31977,1085
39.64977,902
39.97977,876
40.30976,847
40.63976,873
40.96976,849
41.29976,1754
41.62976,983
41.95975,985
42.28975,4054
42.61975,1231
42.94975,873
43.27974,838
43.60974,743
43.93974,783
44.26974,820
44.59974,778
44.92973,787
45.25973,764
45.58973,791
45.91973,761
46.24972,872
46.57972,1997
46.90972,3127
47.23972,1041
47.56972,815
47.89971,775
48.22971,786
48.55971,836
48.88971,927
49.21971,1215
49.5497,13441
49.8797,1791
50.2097,6400
50.5397,1232
50.86969,903
51.19969,792
51.52969,794
51.85969,764
52.18969,1038
52.51968,3752
52.84968,841
53.17968,757
53.50968,741
53.83967,730
54.16967,749
54.49967,915
54.82967,735
55.15967,765
55.48966,757
55.81966,763
56.14966,1511
56.47966,781
56.80965,1318
57.13965,842
57.46965,1183
57.79965,1453
58.12965,949
58.45964,1391
58.78964,9998
59.11964,1416
59.44964,1362
59.77963,1517
60.10963,2988
60.43963,7788
60.76963,2804
61.09963,1016
61.42962,836
61.75962,755
62.08962,772
62.41962,759
62.74961,785
63.07961,765
63.40961,797
63.73961,803
64.06961,768
64.3996,831
64.7296,989
65.0596,1145
65.3896,3848
65.7196,8841
66.04959,4632
66.37959,2038
66.70959,994
67.03959,843
67.36958,784
67.69958,789
68.02958,900
68.35958,2031
68.68958,858
69.01957,802
69.34957,879
69.67957,2785
70.00957,1217
70.33956,1216
70.66956,7542
70.99956,1557
71.32956,1000
71.65956,1184
71.98955,2840
72.31955,14889
72.64955,8510
72.97955,1718
73.30954,967
73.63954,942
73.96954,847
74.29954,984
74.62954,2366
74.95953,1463
75.28953,834
75.61953,2333
75.94953,933
76.27952,716
76.60952,875
76.93952,722
77.26952,666
77.59952,674
77.92951,686
78.25951,762
78.58951,709
78.91951,689
79.2495,696
79.5795,688
79.9095,1096
80.2395,838
80.5695,929
80.89949,3606
81.22949,1043
81.55949,698
81.88949,651
82.21949,685
82.54948,716
82.87948,1014
83.20948,833
83.53948,757
83.86947,641
84.19947,636
84.52947,695
84.85947,911
85.18947,2128
85.51946,1099
85.84946,1183
86.17946,767
86.50946,619
86.83945,630
87.16945,675
87.49945,863
87.82945,664
88.15945,634
88.48944,606
88.81944,661
89.14944,855
89.47944,597
89.80943,596
90.13943,602
90.46943,764
90.79943,587
91.12943,610
91.45942,619
91.78942,623
92.11942,577
92.44942,586
92.77941,600
93.10941,625
93.43941,693
93.76941,849
94.09941,1211
94.4294,5327
94.7594,1590
95.0894,795
95.4194,752
95.7494,735
96.07939,1070
96.40939,2397
96.73939,1463
97.06939,972
97.39938,1024
97.72938,763
98.05938,796
98.38938,896
98.71938,836
99.04937,770
99.37937,823
99.70937,1543
99.99437,4206