File: data/xrd_icdd_PDF/00-061-0089 (PD3).csv
7.84,5616
8.115,5614
8.39,5614
8.665,5604
8.94,5532
9.215,5571
9.49,5517
9.765,5523
10.04,5508
10.315,5483
10.59,5505
10.865,5417
11.14,5556
11.415,5342
11.69,5563
11.965,5440
12.24,5285
12.515,5403
12.79,5298
13.065,5453
13.34,5919
13.615,5283
13.89,5147
14.165,5204
14.44,5112
14.715,5129
14.99,5243
15.265,5333
15.54,6287
15.815,5073
16.09,5081
16.365,5119
16.64,5100
16.915,5129
17.19,5020
17.465,5042
17.74,4898
18.015,4951
18.29,5052
18.565,5124
18.84,5059
19.115,5597
19.39,4888
19.665,4874
19.94,4861
20.215,4923
20.49,5126
20.765,4844
21.04,4857
21.315,4607
21.59,4563
21.865,4489
22.14,4779
22.415,4435
22.69,4264
22.965,4589
23.24,7211
23.515,5463
23.79,4234
24.065,3999
24.34,3903
24.615,3863
24.89,3714
25.165,3689
25.44,3814
25.715,4275
25.99,8496
26.265,4318
26.54,4056
26.815,5256
27.09,3603
27.365,3628
27.64,3611
27.915,4380
28.19,5014
28.465,3602
28.74,3444
29.015,3382
29.29,3513
29.565,3468
29.84,3840
30.115,7704
30.39,5628
30.665,3720
30.94,3616
31.215,4248
31.49,3832
31.765,3438
32.04,3431
32.315,3350
32.59,3675
32.865,4622
33.14,12757
33.415,10000
33.69,5144
33.965,9352
34.24,6168
34.515,3927
34.79,3880
35.065,8210
35.34,4061
35.615,3569
35.89,3692
36.165,4291
36.44,3350
36.715,3215
36.99,4063
37.265,11668
37.54,3924
37.815,4085
38.09,3299
38.365,3569
38.64,5897
38.915,4686
39.19,13479
39.465,4943
39.74,3391
40.015,3172
40.29,3254
40.565,5212
40.84,4322
41.115,2985
41.39,2750
41.665,2617
41.94,2639
42.215,2706
42.49,3428
42.765,3785
43.04,2698
43.315,2832
43.59,2598
43.865,2616
44.14,2675
44.415,2515
44.69,2437
44.965,2427
45.24,2418
45.515,2395
45.79,2330
46.065,2283
46.34,2423
46.615,2527
46.89,2783
47.165,2440
47.44,2473
47.715,2432
47.99,2651
48.265,5089
48.54,2702
48.815,3069
49.09,2409
49.365,2283
49.64,2318
49.915,2475
50.19,2295
50.465,2337
50.74,2244
51.015,2224
51.29,2342
51.565,2176
51.84,2151
52.115,2218
52.39,2368
52.665,2924
52.94,2694
53.215,2730
53.49,4024
53.765,3218
54.04,2735
54.315,2579
54.59,3376
54.865,2743
55.14,2874
55.415,2903
55.69,2961
55.965,3590
56.24,3724
56.515,3181
56.79,2659
57.065,2960
57.34,2576
57.615,4227
57.89,2529
58.165,2298
58.44,2285
58.715,2383
58.99,2488
59.265,2577
59.54,3659
59.815,3541
60.09,2646
60.365,2810
60.64,2711
60.915,2423
61.19,2289
61.465,2204
61.74,2300
62.015,2391
62.29,2577
62.565,2370
62.84,2342
63.115,2195
63.39,2347
63.665,2514
63.94,2851
64.215,2719
64.49,2377
64.765,2573
65.04,3032
65.315,2587
65.59,3442
65.865,2605
66.14,3082
66.415,2413
66.69,2367
66.965,2542
67.24,2382
67.515,2351
67.79,2439
68.065,3119
68.34,2683
68.615,2775
68.89,2736
69.165,2281
69.44,2233
69.715,2336
69.99,2297
70.265,2345
70.54,2424
70.815,2913
71.09,2553
71.365,2317
71.64,2498
71.915,2716
72.19,2399
72.465,2403
72.74,2420
73.015,2963
73.29,2692
73.565,2848
73.84,3087
74.115,2968
74.39,3324
74.665,2795
74.94,2825
75.215,2707
75.49,2566
75.765,2299
76.04,2380
76.315,2473
76.59,2940
76.865,2303
77.14,2311
77.415,2305
77.69,2149
77.965,2157
78.24,2163
78.515,2227
78.79,2176
79.065,2237
79.34,2477
79.615,2333
79.89,2585
80.165,3077
80.44,2655
80.715,2295
80.99,2238
81.265,2312
81.54,2343
81.815,2440
82.09,2351
82.365,2663
82.64,2591
82.915,2493
83.19,2299
83.465,2259
83.74,2207
84.015,2160
84.29,2284
84.565,2282
84.84,2278
85.115,2277
85.39,2275
85.665,2265
85.94,2282
86.215,2259
86.49,2288
86.765,2311
87.04,2492
87.315,2293
87.59,2270
87.865,2408
88.14,2636
88.415,2358
88.69,2394
88.965,2383
89.24,2574
89.515,2696
89.755,2510