File: data/xrd_icdd_PDF/00-059-0185 (PD3).csv
5,1372
5.4,1278
5.8,1110
6.2,1066
6.6,1000
7,1015
7.4,905
7.8,847
8.2,781
8.6,774
9,715
9.4,730
9.8,745
10.2,606
10.6,518
11,526
11.4,438
11.8,489
12.2,407
12.6,453
13,475
13.4,445
13.8,407
14.2,321
14.6,343
15,292
15.4,365
15.8,694
16.2,380
16.6,314
17,409
17.4,292
17.8,204
18.2,299
18.6,234
19,256
19.4,350
19.8,219
20.2,204
20.6,586
21,197
21.4,219
21.8,146
22.2,204
22.6,197
23,313
23.4,413
23.8,485
24.2,204
24.6,212
25,210
25.4,204
25.8,277
26.2,362
26.6,402
27,212
27.4,205
27.8,781
28.2,234
28.6,398
29,204
29.4,314
29.8,256
30.2,1129
30.6,467
31,694
31.4,225
31.8,402
32.2,183
32.6,295
33,3051
33.4,305
33.8,1272
34.2,1802
34.6,2179
35,2533
35.4,473
35.8,302
36.2,220
36.6,377
37,223
37.4,285
37.8,423
38.2,4221
38.6,1531
39,526
39.4,3398
39.8,2185
40.2,472
40.6,359
41,219
41.4,241
41.8,394
42.2,307
42.6,321
43,336
43.4,1377
43.8,387
44.2,320
44.6,374
45,373
45.4,233
45.8,270
46.2,270
46.6,496
47,292
47.4,271
47.8,270
48.2,416
48.6,336
49,314
49.4,1178
49.8,419
50.2,380
50.6,369
51,312
51.4,307
51.8,416
52.2,387
52.6,330
53,482
53.4,646
53.8,628
54.2,815
54.6,394
55,511
55.4,880
55.8,533
56.2,905
56.6,593
57,366
57.4,691
57.8,307
58.2,876
58.6,523
59,820
59.4,540
59.8,327
60.2,320
60.6,394
61,701
61.4,541
61.8,636
62.2,494
62.6,376
63,375
63.4,418
63.8,431
64.2,356
64.6,423
65,394
65.4,1576
65.8,438
66.2,422
66.6,801
67,409
67.4,343
67.8,426
68.2,949
68.6,518
69,443
69.4,522
69.8,643
70.2,388
70.6,409
71,336
71.4,584
71.8,365
72.2,720
72.6,555
73,752
73.4,299
73.8,489
74.2,387
74.6,599
75,949
75.4,445
75.8,358
76.2,825
76.6,387
77,314
77.4,759
77.8,380
78.2,270
78.6,321
79,248
79.4,314
79.8,321
80.2,445
80.6,533
81,496
81.4,774
81.8,1022
82.2,372
82.6,350
83,555
83.4,628
83.8,387
84.2,577
84.6,380
85,613
85.4,365
85.8,613
86.2,621
86.6,883
87,423
87.4,380
87.8,299
88.2,423
88.6,372
89,489
89.4,263
89.8,299
90.2,270
90.6,336
91,650
91.4,394
91.8,350
92.2,445
92.6,635
93,504
93.4,533
93.8,555
94.2,475
94.6,511
95,387
95.4,394
95.8,555
96.2,803
96.6,956
97,482
97.4,380
97.8,416
98.2,715
98.6,599
99,423
99.4,358
99.8,599
100.2,380
100.6,358
101,365
101.4,329
101.8,292
102.2,350
102.6,343
103,329
103.4,372
103.8,467
104.2,438
104.6,423
105,657
105.4,621
105.8,577
106.2,504
106.6,482
107,423
107.4,423
107.8,781
108.2,496
108.6,423
109,555
109.4,475
109.8,737
110.2,993
110.6,825
111,978
111.4,898
111.8,672
112.2,526
112.6,511
113,394
113.4,387
113.8,460
114.2,548
114.6,621
115,489
115.4,788
115.8,628
116.2,628
116.6,723
117,672
117.4,533
117.8,642
118.2,891
118.6,752
119,854
119.4,540
119.8,438
120.04,387