File: data/xrd_icdd_PDF/00-068-0308 (PD3).csv
8.60846,49.784
8.84846,46.23592
9.08846,58.10189
9.32846,44.67163
9.56846,61.28313
9.80846,54.69163
10.04846,51.9677
10.28846,54.52615
10.52846,50.40489
10.76846,70.98761
11.00846,56.42512
11.24846,63.74482
11.48846,51.99144
11.72846,53.31676
11.96846,54.61629
12.20846,58.88728
12.44846,60.8906
12.68846,55.75182
12.92846,60.12339
13.16846,55.26059
13.40846,59.81031
13.64846,56.39296
13.88846,55.24491
14.12846,46.23234
14.36846,50.84473
14.60846,64.67032
14.84846,57.62981
15.08846,66.01424
15.32846,67.29037
15.56846,63.66131
15.80846,59.39445
16.04846,57.34352
16.28846,59.87908
16.52846,57.13059
16.76846,61.45969
17.00846,62.92855
17.24846,59.92828
17.48846,62.17842
17.72846,45.07345
17.96846,50.99657
18.20846,52.18221
18.44846,45.34882
18.68846,59.41519
18.92846,62.2843
19.16846,69.67289
19.40846,54.91771
19.64846,53.2326
19.88846,53.23479
20.12846,64.45004
20.36846,74.96126
20.60846,71.73598
20.84846,133.103
21.08846,57.71623
21.32846,59.84227
21.56846,72.18986
21.80846,131.494
22.04846,70.13339
22.28846,57.64264
22.52846,57.44366
22.76846,58.4849
23.00846,57.13496
23.24846,59.98586
23.48846,54.14775
23.72846,62.48484
23.96846,53.68877
24.20846,67.06838
24.44846,63.35685
24.68846,65.21845
24.92846,58.91692
25.16846,107.297
25.40846,61.22999
25.64846,65.12934
25.88846,62.25844
26.12846,62.39782
26.36846,67.59052
26.60846,64.12789
26.84846,57.81772
27.08846,71.76782
27.32846,59.0816
27.56846,74.08139
27.80846,60.49537
28.04846,59.33027
28.28846,62.3652
28.52846,60.83844
28.76846,66.72007
29.00846,68.98219
29.24846,59.18289
29.48846,61.16757
29.72846,66.76364
29.96846,70.24839
30.20846,59.27867
30.44846,63.00151
30.68846,51.31816
30.92846,66.64059
31.16846,69.93662
31.40846,69.55909
31.64846,59.54898
31.88846,63.0641
32.12846,73.9938
32.36846,68.28831
32.60846,88.94286
32.84846,278.482
33.08846,316.99
33.32846,92.25408
33.56846,75.35546
33.80846,72.28834
34.04846,61.50278
34.28846,66.3579
34.52846,60.37835
34.76846,59.53652
35.00846,77.20634
35.24846,64.0007
35.48846,102.921
35.72846,310.332
35.96846,833.92
36.20846,165.487
36.44846,81.94382
36.68846,76.34434
36.92846,70.87826
37.16846,77.84398
37.40846,65.04512
37.64846,65.4347
37.88846,55.75575
38.12846,72.70989
38.36846,59.35837
38.60846,56.01438
38.84846,56.85694
39.08846,67.58
39.32846,74.12226
39.56846,65.70557
39.80846,63.39098
40.04846,69.21052
40.28846,56.59075
40.52846,77.68306
40.76846,79.01728
41.00846,61.21061
41.24846,82.95687
41.48846,118.6565
41.72846,306.267
41.96846,220.814
42.20846,322.564
42.44846,894.49
42.68846,152.231
42.92846,95.37086
43.16846,76.2219
43.40846,74.95929
43.64846,68.02506
43.88846,55.68553
44.12846,87.04229
44.36846,147.704
44.60846,224.9
44.84846,77.84735
45.08846,80.42262
45.32846,88.84928
45.56846,98.59772
45.80846,249.752
46.04846,210.142
46.28846,75.30654
46.52846,70.3734
46.76846,71.7733
47.00846,71.60468
47.24846,68.83663
47.48846,60.45842
47.72846,66.85404
47.96846,63.11983
48.20846,69.63608
48.44846,57.83407
48.68846,62.41499
48.92846,68.05396
49.16846,72.83879
49.40846,82.27851
49.64846,99.19517
49.88846,78.53832
50.12846,65.12132
50.36846,70.95156
50.60846,60.40154
50.84846,66.2656
51.08846,52.43533
51.32846,57.80113
51.56846,74.04099
51.80846,86.21304
52.04846,68.03636
52.28846,78.90023
52.52846,64.73423
52.76846,70.32833
53.00846,56.35779
53.24846,64.09413
53.48846,65.05086
53.72846,70.84124
53.96846,67.93827
54.20846,59.79489
54.44846,65.12658
54.68846,62.18366
54.92846,62.07447
55.16846,62.83208
55.40846,70.8105
55.64846,62.55073
55.88846,73.18838
56.12846,72.44535
56.36846,84.22479
56.60846,146.908
56.84846,122.231
57.08846,109.62
57.32846,73.60389
57.56846,68.36107
57.80846,70.39829
58.04846,77.27617
58.28846,73.91197
58.52846,72.54679
58.76846,70.91862
59.00846,60.61574
59.24846,71.10041
59.48846,70.85301
59.72846,68.36145
59.96846,67.90445
60.20846,57.89468
60.44846,68.61815
60.68846,63.29274
60.92846,60.03755
61.16846,69.81443
61.40846,66.84997
61.64846,83.38756
61.88846,61.17862
62.12846,66.5089
62.36846,87.07013
62.60846,165.696
62.84846,116.61
63.08846,69.35045
63.32846,72.86669
63.56846,82.8744
63.80846,74.94957
64.04846,71.29678
64.28846,107.51
64.52846,204.362
64.76846,106.273
65.00846,92.10364
65.24846,78.59536
65.48846,79.23643
65.72846,121.8996
65.96846,138.172
66.20846,73.98806
66.44846,73.26439
66.68846,83.2759
66.92846,68.26219
67.16846,70.72664
67.40846,65.75117
67.64846,76.8423
67.88846,79.82068
68.12846,76.06257
68.36846,80.19833
68.60846,117.609
68.84846,306.222
69.08846,280.3951
69.32846,167.701
69.56846,91.34363
69.80846,82.95388
70.04846,68.16558
70.28846,75.85271
70.52846,69.51713
70.76846,71.73553
71.00846,72.47495
71.24846,61.7348
71.48846,96.2607
71.72846,97.82479
71.96846,74.07544
72.20846,84.24453
72.44846,81.72318
72.68846,71.51726
72.92846,73.67593
73.16846,74.8994
73.40846,60.83957
73.64846,72.80953
73.88846,74.85711
74.12846,68.94186
74.36846,81.33811
74.60846,70.50104
74.84846,74.01659
75.02846,64.0001