File: data/xrd_icdd_PDF/00-059-0841 (PD3).csv
5,177
5.46,121
5.92,174
6.38,146
6.84,121
7.3,108
7.76,100
8.22,130
8.68,156
9.14,142
9.6,144
10.06,128
10.52,123
10.98,137
11.44,106
11.9,130
12.36,144
12.82,144
13.28,112
13.74,166
14.2,159
14.66,174
15.12,193
15.58,259
16.04,172
16.5,166
16.96,219
17.42,190
17.88,159
18.34,219
18.8,361
19.26,174
19.72,216
20.18,196
20.64,130
21.1,149
21.56,161
22.02,102
22.48,188
22.94,88
23.4,106
23.86,196
24.32,137
24.78,246
25.24,123
25.7,353
26.16,350
26.62,102
27.08,117
27.54,185
28,3636
28.46,625
28.92,2632
29.38,156
29.84,112
30.3,112
30.76,132
31.22,1197
31.68,320
32.14,121
32.6,412
33.06,100
33.52,1475
33.98,119
34.44,392
34.9,416
35.36,380
35.82,428
36.28,125
36.74,172
37.2,119
37.66,88
38.12,74
38.58,88
39.04,164
39.5,169
39.96,102
40.42,424
40.88,480
41.34,317
41.8,576
42.26,144
42.72,92
43.18,156
43.64,117
44.1,199
44.56,119
45.02,392
45.48,117
45.94,106
46.4,454
46.86,182
47.32,119
47.78,276
48.24,85
48.7,745
49.16,169
49.62,108
50.08,219
50.54,164
51,177
51.46,724
51.92,666
52.38,100
52.84,180
53.3,600
53.76,151
54.22,202
54.68,149
55.14,369
55.6,174
56.06,1089
56.52,213
56.98,154
57.44,156
57.9,306
58.36,222
58.82,286
59.28,590
59.74,177
60.2,142
60.66,306
61.12,207
61.58,303
62.04,342
62.5,376
62.96,256
63.42,169
63.88,121
64.34,104
64.8,282
65.26,185
65.72,53
66.18,130
66.64,207
67.1,161
67.56,190
68.02,289
68.48,139
68.94,53
69.4,180
69.86,149
70.32,317
70.78,137
71.24,225
71.7,228
72.16,202
72.62,246
73.08,335
73.54,144
74,135
74.46,117
74.92,123
75.38,121
75.84,204
76.3,225
76.76,193
77.22,108
77.68,149
78.14,159
78.6,142
79.06,151
79.52,125
79.98,137
80.44,339
80.9,365
81.36,213
81.82,240
82.28,202
82.74,132
83.2,159
83.66,237
84.12,156
84.58,169
85.04,149
85.5,199
85.96,137
86.42,114
86.88,121
87.34,310
87.8,159
88.26,246
88.72,137
89.18,139
89.64,146
90.1,121
90.56,222
91.02,269
91.48,231
91.94,139
92.4,207
92.86,174
93.32,216
93.78,188
94.24,207
94.7,202
95.16,161
95.62,174
96.08,128
96.54,119
97,219
97.46,174
97.92,117
98.38,117
98.84,121
99.3,125
99.76,106
100.22,169
100.68,128
101.14,130
101.6,114
102.06,139
102.52,161
102.98,146
103.44,130
103.9,139
104.36,144
104.82,77
105.28,132
105.74,102
106.2,182
106.66,204
107.12,139
107.58,85
108.04,61
108.5,98
108.96,108
109.42,92
109.88,154
110.34,135
110.8,85
111.26,119
111.72,180
112.18,130
112.64,79
113.1,125
113.56,112
114.02,88
114.48,98
114.94,110
115.4,90
115.86,121
116.32,219
116.78,177
117.24,146
117.7,146
118.16,159
118.62,222
119.08,289
119.54,202
120,185
120.46,182
120.92,190
121.38,169
121.84,156
122.3,207
122.76,144
123.22,79
123.68,128
124.14,119
124.6,154
125.06,100
125.52,121
125.98,177
126.44,161
126.9,137
127.36,156
127.82,172
128.28,119
128.74,159
129.2,142
129.66,146
130.12,137
130.58,149
131.04,112
131.5,110
131.96,154
132.42,151
132.88,193
133.34,154
133.8,177
134.26,88
134.72,164
135.18,182
135.64,159
136.1,210
136.56,128
137.02,174
137.48,166
137.94,174
138.4,166
138.86,156
139.32,169
139.78,144
139.88,130