File: data/xrd_icdd_PDF/00-069-0133 (PD3).csv
9.9813,47
10.18329,74
10.38527,50
10.58726,74
10.78924,52
10.99123,67
11.19322,79
11.3952,120
11.59719,70
11.79917,97
12.00116,81
12.20314,70
12.40513,74
12.60712,113
12.8091,93
13.01109,90
13.21307,102
13.41506,102
13.61705,106
13.81903,136
14.02102,112
14.223,157
14.42499,237
14.62697,1141
14.82896,667
15.03095,213
15.23293,320
15.43492,168
15.6369,157
15.83889,194
16.04088,132
16.24286,163
16.44485,194
16.64683,170
16.84882,129
17.05081,174
17.25279,172
17.45478,182
17.65676,190
17.85875,203
18.06073,195
18.26272,172
18.46471,168
18.66669,174
18.86868,184
19.07066,160
19.27265,160
19.47464,179
19.67662,184
19.87861,194
20.08059,174
20.28258,180
20.48456,203
20.68655,199
20.88854,351
21.09052,669
21.29251,292
21.49449,200
21.69648,204
21.89847,198
22.10045,283
22.30244,749
22.50442,203
22.70641,188
22.9084,195
23.11038,153
23.31237,194
23.51435,222
23.71634,509
23.91832,694
24.12031,234
24.3223,218
24.52428,295
24.72627,792
24.92825,258
25.13024,198
25.33223,237
25.53421,260
25.7362,1195
25.93818,318
26.14017,254
26.34215,222
26.54414,281
26.74613,1037
26.94811,460
27.1501,226
27.35208,213
27.55407,268
27.75606,285
27.95804,963
28.16003,7554
28.36201,502
28.564,421
28.76598,2428
28.96797,2380
29.16996,369
29.37194,326
29.57393,487
29.77591,1910
29.9779,296
30.17989,264
30.38187,249
30.58386,262
30.78584,1757
30.98783,332
31.18982,221
31.3918,210
31.59379,230
31.79577,204
31.99776,215
32.19974,184
32.40173,200
32.60372,176
32.8057,178
33.00769,244
33.20967,269
33.41166,382
33.61365,2058
33.81563,1316
34.01762,235
34.2196,242
34.42159,402
34.62357,203
34.82556,203
35.02755,190
35.22953,304
35.43152,823
35.6335,225
35.83549,191
36.03748,180
36.23946,176
36.44145,210
36.64343,763
36.84542,505
37.04741,470
37.24939,309
37.45138,1962
37.65336,365
37.85535,200
38.05733,160
38.25932,218
38.46131,870
38.66329,313
38.86528,413
39.06726,1251
39.26925,246
39.47124,167
39.67322,183
39.87521,170
40.07719,258
40.27918,151
40.48116,153
40.68315,153
40.88514,153
41.08712,156
41.28911,140
41.49109,125
41.69308,114
41.89507,153
42.09705,178
42.29904,171
42.50102,137
42.70301,144
42.905,149
43.10698,124
43.30897,152
43.51095,157
43.71294,149
43.91492,156
44.11691,157
44.3189,767
44.52088,358
44.72287,140
44.92485,136
45.12684,144
45.32883,323
45.53081,414
45.7328,278
45.93478,157
46.13677,168
46.33875,137
46.54074,217
46.74273,642
46.94471,2115
47.1467,1179
47.34868,203
47.55067,176
47.75266,152
47.95464,118
48.15663,180
48.35861,137
48.5606,171
48.76259,428
48.96457,202
49.16656,373
49.36854,1022
49.57053,643
49.77251,186
49.9745,155
50.17649,139
50.37847,230
50.58046,490
50.78244,323
50.98443,293
51.18642,210
51.3884,178
51.59039,183
51.79237,1271
51.99436,381
52.19634,938
52.39833,627
52.60032,139
52.8023,172
53.00429,480
53.20627,179
53.40826,121
53.61025,114
53.81223,114
54.01422,108
54.2162,258
54.41819,304
54.62018,128
54.82216,125
55.02415,129
55.22613,278
55.42812,242
55.6301,124
55.83209,147
56.03408,137
56.23606,225
56.43805,787
56.64003,1649
56.84202,383
57.04401,182
57.24599,132
57.44798,144
57.64996,200
57.85195,156
58.05393,113
58.25592,94
58.45791,74
58.65989,141
58.86188,133
59.06386,74
59.26585,94
59.46784,70
59.66982,89
59.87181,102
60.07379,96
60.27578,109
60.47776,71
60.67975,65
60.88174,89
61.08372,122
61.28571,137
61.48769,264
61.68968,531
61.89167,351
62.09365,117
62.29564,79
62.49762,77
62.69961,70
62.9016,62
63.10358,51
63.30557,65
63.50755,65
63.70954,66
63.91152,66
64.11351,155
64.3155,657
64.51748,313
64.71947,85
64.92145,101
65.12344,204
65.32543,373
65.52741,248
65.7294,96
65.93138,97
66.13337,74
66.33535,226
66.53734,161
66.73933,102
66.94131,112
67.1433,570
67.34528,619
67.54727,460
67.74926,186
67.95124,77
68.15323,47
68.35521,97
68.5572,69
68.75919,61
68.96117,42
69.16316,42
69.36514,86
69.56713,133
69.76911,57
69.9711,48
69.9771,38