File: data/xrd_icdd_PDF/00-065-0316 (PD3).csv
3.24286,2325.74
3.82786,1694.73
4.41286,1231.55
4.99786,995.063
5.58286,909.909
6.16786,871.631
6.75286,740.1359
7.33786,658.959
7.92286,646.312
8.50786,665.362
9.09286,647.644
9.67786,590.144
10.26286,554.033
10.84786,532.654
11.43286,500.961
12.01786,485.083
12.60286,474.46
13.18786,454.569
13.77286,489.775
14.35786,8292.92
14.94286,468.115
15.52786,485.311
16.11286,468.366
16.69786,505.318
17.28286,478.407
17.86786,490.84
18.45286,530.021
19.03786,568.029
19.62286,595.811
20.20786,779.408
20.79286,668.454
21.37786,668.545
21.96286,696.808
22.54786,1560.76
23.13286,839.899
23.71786,721.173
24.30286,3695.04
24.88786,821.302
25.47286,798.995
26.05786,838.692
26.64286,880.0285
27.22786,1001.68
27.81286,944.943
28.39786,4884.19
28.98286,1800.91
29.56786,1009.55
30.15286,1168.43
30.73786,6687.91
31.32286,1075.75
31.90786,81654.4
32.49286,1217
33.07786,700.117
33.66286,624.022
34.24786,627.735
34.83286,608.873
35.41786,586.773
36.00286,514.292
36.58786,459.895
37.17286,494.448
37.75786,461.806
38.34286,638.749
38.92786,486.986
39.51286,464.417
40.09786,461.123
40.68286,468.887
41.26786,987.715
41.85286,504.437
42.43786,623.147
43.02286,631.582
43.60786,9879.8
44.19286,741.3449
44.77786,565.801
45.36286,549.842
45.94786,618.006
46.53286,829.687
47.11786,626.677
47.70286,2362.85
48.28786,616.562
48.87286,717.73
49.45786,631.484
50.04286,1045.86
50.62786,1173.53
51.21286,668.483
51.79786,638.31
52.38286,875.846
52.96786,2010.45
53.55286,1346.53
54.13786,699.806
54.72286,779.752
55.30786,11908.8
55.89286,769.898
56.47786,3833.77
57.06286,950.059
57.64786,10531.7
58.23286,710.125
58.81786,949.107
59.40286,2205.27
59.98786,585.699
60.57286,549.449
61.15786,581.51
61.74286,1090.47
62.32786,571.401
62.91286,538.422
63.49786,1110.46
64.08286,607.732
64.66786,1175.08
65.25286,823.45
65.83786,587.821
66.42286,735.759
67.00786,657.512
67.59286,714.71
68.17786,547.8487
68.76286,841.912
69.34786,519.5
69.93286,492.901
70.51786,497.499
71.10286,505.39
71.68786,551.004
72.27286,1697.56
72.85786,969.031
73.44286,852.466
74.02786,1192.06
74.61286,1134.63
75.19786,877.931
75.78286,680.692
76.36786,680.404
76.95286,4959.32
77.53786,640.698
78.12286,667.917
78.70786,2155.49
79.29286,638.617
79.87786,679.78
80.46286,1757.31
81.04786,616.258
81.63286,684.4152
82.21786,1626
82.80286,600.837
83.38786,1452.844
83.97286,1002.96
84.55786,633.669
85.14286,665.032
85.72786,4851.9
86.31286,652.17
86.89786,793.2223
87.48286,929.005
88.06786,569.25
88.65286,597.698
89.23786,1501.38
89.82286,631.146
90.40786,1113.55
90.99286,1301.41
91.57786,735.294
92.16286,574.812
92.74786,1390.79
93.33286,720.408
93.91786,526.0599
94.50286,1871.28
95.08786,679.469
95.67286,1496.17
96.25786,866.7667
96.84286,559.349
97.42786,941.607
98.01286,705.287
98.59786,511.117
99.18286,468.229
99.76786,461.057
100.353,473.375
100.938,478.925
101.523,650.314
102.108,516.719
102.693,665.502
103.278,782.876
103.863,1026.29
104.448,539.604
105.033,675.867
105.618,794.317
106.203,485.13
106.788,478.196
107.373,656.465
107.958,567.699
108.543,800.201
109.128,785.289
109.713,674.856
110.298,513.167
110.883,738.742
111.468,605.285
112.053,1360.86
112.638,1158.61
113.223,989.671
113.808,546.999
114.393,601.279
114.978,883.639
115.563,588.43
116.148,1406.3
116.733,597.863
117.318,587.762
117.903,612.303
118.488,785.825
119.073,1120.29
119.658,595.384
120.243,705.926
120.828,1218.98
121.413,579.5853
121.998,491.91
122.583,518.881
123.168,591.447
123.753,601.404
124.338,953.186
124.923,1210.85
125.508,1417.83
126.093,629.393
126.678,597.961
127.263,612.59
127.848,583.945
128.433,506.611
129.018,610.955
129.603,1064.03
130.188,676.325
130.773,528.344
131.358,616.775
131.943,930.83
132.528,607.28
133.113,618.376
133.698,752.9821
134.283,903.087
134.868,1139.34
135.453,599.097
136.038,647.152
136.623,494.831
137.208,464.181
137.793,478.462
138.378,736.0226
138.963,620.923
139.548,473.98
140.133,446.509
140.718,459.695
141.303,471.675
141.888,536.621
142.473,556.276
143.058,486.935
143.643,454.028
144.228,495.596
144.813,512.7786
145.398,621.722
145.983,651.77
146.568,488.883
147.153,452.392
147.738,495.9129
148.323,592.8055
148.908,671.986
149.493,601.386
150.078,538.823
150.663,639.432
151.248,709.806
151.833,669.437
152.418,751.762
153.003,655.956
153.588,528.0408
154.173,450.8712
154.758,431.063
155.343,475.375
155.928,562.64
156.513,647.757
157.098,572.409
157.683,532.578
158.268,523.673
158.853,590.142
159.438,676.724
160.023,682.6908
160.608,613.932
161.193,627
161.778,543.43
162.363,477.9545
162.948,436.242
163.533,438.473
164.118,411.77
164.703,432.596
165.288,441.191
165.873,433.009
166.458,449.827
167.043,469.308
167.628,454.097
168.213,470.677
168.798,546.077
169.383,527.054
169.968,491.764
170.553,492.753
171.138,475.778
171.723,455.987
172.308,504.815
172.893,536.791
173.478,576.9458
174.063,601.794
174.648,639.79
175.233,672.122
175.818,709.338
176.403,693.558
176.988,699.181
177.573,707.846
178.158,693.8858
178.653,691.298