File: data/xrd_icdd_PDF/00-071-0759 (PD3).csv
10,394
10.28546,417
10.57091,442
10.85637,388
11.14182,375
11.42728,395
11.71274,362
11.99819,389
12.28365,369
12.5691,412
12.85456,370
13.14002,365
13.42547,357
13.71093,376
13.99638,352
14.28184,327
14.5673,337
14.85275,313
15.13821,317
15.42366,301
15.70912,328
15.99458,312
16.28003,309
16.56549,276
16.85094,301
17.1364,297
17.42186,288
17.70731,318
17.99277,286
18.27822,273
18.56368,277
18.84914,334
19.13459,297
19.42005,356
19.7055,320
19.99096,307
20.27642,326
20.56187,319
20.84733,354
21.13278,329
21.41824,330
21.7037,317
21.98915,332
22.27461,359
22.56006,396
22.84552,331
23.13098,335
23.41643,306
23.70189,319
23.98734,301
24.2728,331
24.55826,336
24.84371,327
25.12917,327
25.41462,353
25.70008,420
25.98554,369
26.27099,372
26.55645,385
26.8419,402
27.12736,336
27.41282,397
27.69827,425
27.98373,382
28.26918,406
28.55464,385
28.8401,430
29.12555,430
29.41101,399
29.69646,396
29.98192,448
30.26738,411
30.55283,421
30.83829,456
31.12374,484
31.4092,1635
31.69466,509
31.98011,462
32.26557,420
32.55102,413
32.83648,453
33.12194,411
33.40739,425
33.69285,387
33.9783,439
34.26376,435
34.54922,430
34.83467,388
35.12013,574
35.40558,447
35.69104,513
35.9765,627
36.26195,1168
36.54741,1021
36.83286,501
37.11832,426
37.40378,435
37.68923,414
37.97469,426
38.26014,426
38.5456,457
38.83106,427
39.11651,450
39.40197,408
39.68742,443
39.97288,434
40.25834,429
40.54379,527
40.82925,1110
41.1147,512
41.40016,466
41.68562,455
41.97107,457
42.25653,357
42.54198,401
42.82744,393
43.1129,399
43.39835,475
43.68381,406
43.96926,489
44.25472,393
44.54018,368
44.82563,411
45.11109,383
45.39654,413
45.682,406
45.96746,345
46.25291,413
46.53837,425
46.82382,397
47.10928,407
47.39474,380
47.68019,431
47.96565,428
48.2511,420
48.53656,407
48.82202,419
49.10747,381
49.39293,403
49.67838,370
49.96384,402
50.2493,387
50.53475,410
50.82021,403
51.10566,408
51.39112,382
51.67658,385
51.96203,359
52.24749,395
52.53294,388
52.8184,378
53.10386,380
53.38931,372
53.67477,361
53.96022,354
54.24568,396
54.53114,431
54.81659,395
55.10205,417
55.3875,446
55.67296,650
55.95842,793
56.24387,459
56.52933,411
56.81478,381
57.10024,401
57.3857,376
57.67115,418
57.95661,369
58.24206,419
58.52752,411
58.81298,374
59.09843,401
59.38389,380
59.66934,394
59.9548,421
60.24026,389
60.52571,403
60.81117,400
61.09662,389
61.38208,433
61.66754,364
61.95299,455
62.23845,554
62.5239,740
62.80936,462
63.09482,443
63.38027,398
63.66573,390
63.95118,391
64.23664,419
64.5221,398
64.80755,437
65.09301,455
65.37846,773
65.66392,573
65.94938,405
66.23483,375
66.52029,391
66.80574,370
67.0912,370
67.37666,422
67.66211,407
67.94757,427
68.23302,378
68.51848,416
68.80394,419
69.08939,382
69.37485,418
69.6603,413
69.94576,403
70.23122,414
70.51667,393
70.80213,404
71.08758,460
71.37304,503
71.6585,525
71.94395,434
72.22941,383
72.51486,418
72.80032,383
73.08578,376
73.37123,409
73.65669,386
73.94214,404
74.2276,429
74.51306,516
74.79851,398
75.08397,399
75.36942,371
75.65488,408
75.94034,386
76.22579,399
76.51125,387
76.7967,415
77.08216,417
77.36762,423
77.65307,441
77.93853,400
78.22398,348
78.50944,399
78.7949,401
79.08035,397
79.36581,378
79.65126,390
79.93672,399
80.22218,402
80.50763,380
80.79309,381
81.07854,375
81.364,365
81.64946,386
81.93491,395
82.22037,370
82.50582,389
82.79128,387
83.07674,384
83.36219,367
83.64765,391
83.9331,372
84.21856,405
84.50402,363
84.78947,393
85.07493,388
85.36038,404
85.64584,397
85.9313,393
86.21675,375
86.50221,386
86.78766,391
87.07312,402
87.35858,410
87.64403,408
87.92949,445
88.21494,434
88.5004,508
88.78586,478
89.07131,404
89.35677,379
89.64222,377
89.92768,392
90.0038,391