File: data/xrd_icdd_PDF/00-059-0205 (PD3).csv
6,2512
6.34,2463
6.68,2462
7.02,2489
7.36,2492
7.7,2423
8.04,2408
8.38,2333
8.72,2289
9.06,2284
9.4,2324
9.74,2150
10.08,2170
10.42,2133
10.76,2042
11.1,2136
11.44,1968
11.78,1901
12.12,2013
12.46,1960
12.8,1950
13.14,1839
13.48,1890
13.82,1866
14.16,1815
14.5,1867
14.84,1825
15.18,1837
15.52,1754
15.86,1721
16.2,1731
16.54,1717
16.88,1680
17.22,1653
17.56,1670
17.9,1668
18.24,1595
18.58,1598
18.92,2800
19.26,1573
19.6,1586
19.94,1585
20.28,2323
20.62,1452
20.96,1451
21.3,1479
21.64,1393
21.98,1407
22.32,1373
22.66,1416
23,1316
23.34,1297
23.68,1268
24.02,1412
24.36,1234
24.7,1203
25.04,1172
25.38,1112
25.72,1156
26.06,1122
26.4,1134
26.74,1196
27.08,1091
27.42,1040
27.76,1631
28.1,1140
28.44,1028
28.78,1043
29.12,1309
29.46,1012
29.8,996
30.14,1024
30.48,2133
30.82,2327
31.16,1010
31.5,930
31.84,911
32.18,922
32.52,895
32.86,860
33.2,912
33.54,929
33.88,879
34.22,1090
34.56,2124
34.9,15469
35.24,1677
35.58,956
35.92,835
36.26,861
36.6,1257
36.94,1602
37.28,824
37.62,855
37.96,1290
38.3,12128
38.64,1923
38.98,866
39.32,758
39.66,781
40,1297
40.34,916
40.68,731
41.02,646
41.36,628
41.7,630
42.04,681
42.38,648
42.72,632
43.06,784
43.4,617
43.74,755
44.08,647
44.42,885
44.76,646
45.1,571
45.44,619
45.78,608
46.12,784
46.46,591
46.8,590
47.14,572
47.48,556
47.82,569
48.16,542
48.5,590
48.84,790
49.18,555
49.52,571
49.86,527
50.2,515
50.54,546
50.88,508
51.22,529
51.56,548
51.9,528
52.24,554
52.58,626
52.92,636
53.26,582
53.6,621
53.94,1082
54.28,2253
54.62,792
54.96,906
55.3,3271
55.64,943
55.98,638
56.32,537
56.66,522
57,524
57.34,483
57.68,485
58.02,493
58.36,508
58.7,526
59.04,547
59.38,532
59.72,655
60.06,930
60.4,636
60.74,533
61.08,508
61.42,484
61.76,495
62.1,488
62.44,519
62.78,513
63.12,593
63.46,545
63.8,597
64.14,563
64.48,1093
64.82,757
65.16,587
65.5,522
65.84,497
66.18,592
66.52,804
66.86,1914
67.2,2768
67.54,1993
67.88,864
68.22,1363
68.56,831
68.9,550
69.24,527
69.58,449
69.92,488
70.26,609
70.6,665
70.94,456
71.28,482
71.62,466
71.96,427
72.3,476
72.64,482
72.98,486
73.32,527
73.66,700
74,596
74.34,538
74.68,489
75.02,448
75.36,438
75.7,426
76.04,435
76.38,457
76.72,508
77.06,454
77.4,432
77.74,423
78.08,466
78.42,497
78.76,437
79.1,491
79.44,433
79.78,574
80.12,497
80.46,445
80.8,471
81.14,503
81.48,516
81.82,692
82.16,943
82.5,588
82.84,469
83.18,506
83.52,445
83.86,434
84.2,436
84.54,482
84.88,460
85.22,529
85.56,476
85.9,541
86.24,507
86.58,447
86.92,483
87.26,456
87.6,493
87.94,476
88.28,442
88.62,447
88.96,460
89.3,522
89.64,491
89.98,561
90.32,603
90.66,742
91,520
91.34,540
91.68,552
92.02,686
92.36,1088
92.7,1224
93.04,898
93.38,815
93.72,747
94.06,813
94.4,1170
94.74,796
95.08,578
95.42,520
95.76,495
96.1,469
96.44,459
96.78,465
97.12,419
97.46,491
97.8,444
98.14,462
98.48,521
98.82,473
99.16,453
99.5,470
99.84,500
100.18,553
100.52,524
100.86,494
101.2,444
101.54,487
101.88,490
102.22,494
102.56,479
102.9,571
103.24,642
103.58,507
103.92,487
104.26,506
104.6,551
104.94,505
105.28,538
105.62,582
105.69,692