File: data/xrd_icdd_PDF/00-073-0364 (PD3).csv
10,15
10.24,13
10.48,11
10.72,15
10.96,10
11.2,7
11.44,17
11.68,16
11.92,11
12.16,13
12.4,11
12.64,15
12.88,13
13.12,11
13.36,14
13.6,13
13.84,10
14.08,8
14.32,13
14.56,6
14.8,10
15.04,12
15.28,10
15.52,10
15.76,15
16,9
16.24,15
16.48,9
16.72,6
16.96,8
17.2,3
17.44,9
17.68,10
17.92,39
18.16,9
18.4,10
18.64,9
18.88,9
19.12,6
19.36,4
19.6,6
19.84,10
20.08,15
20.32,7
20.56,6
20.8,5
21.04,8
21.28,11
21.52,3
21.76,6
22,5
22.24,4
22.48,5
22.72,9
22.96,8
23.2,4
23.44,1
23.68,7
23.92,1
24.16,1
24.4,9
24.64,4
24.88,3
25.12,5
25.36,3
25.6,7
25.84,5
26.08,10
26.32,9
26.56,8
26.8,6
27.04,18
27.28,81
27.52,717
27.76,472
28,28
28.24,17
28.48,14
28.72,11
28.96,9
29.2,6
29.44,42
29.68,194
29.92,8
30.16,10
30.4,6
30.64,2
30.88,5
31.12,2
31.36,4
31.6,3
31.84,5
32.08,2
32.32,7
32.56,6
32.8,5
33.04,141
33.28,104
33.52,6
33.76,10
34,3
34.24,5
34.48,1
34.72,3
34.96,3
35.2,5
35.44,7
35.68,6
35.92,3
36.16,4
36.4,11
36.64,5
36.88,1
37.12,3
37.36,7
37.6,4
37.84,12
38.08,69
38.32,6
38.56,0
38.8,5
39.04,3
39.28,3
39.52,4
39.76,8
40,4
40.24,4
40.48,2
40.72,6
40.96,5
41.2,5
41.44,4
41.68,2
41.92,7
42.16,8
42.4,4
42.64,6
42.88,5
43.12,4
43.36,6
43.6,12
43.84,16
44.08,5
44.32,4
44.56,12
44.8,26
45.04,355
45.28,110
45.52,11
45.76,7
46,4
46.24,4
46.48,3
46.72,4
46.96,5
47.2,6
47.44,34
47.68,140
47.92,7
48.16,3
48.4,9
48.64,6
48.88,5
49.12,3
49.36,4
49.6,6
49.84,6
50.08,3
50.32,7
50.56,4
50.8,1
51.04,4
51.28,89
51.52,180
51.76,9
52,9
52.24,4
52.48,5
52.72,2
52.96,4
53.2,8
53.44,5
53.68,12
53.92,9
54.16,7
54.4,4
54.64,4
54.88,6
55.12,4
55.36,10
55.6,14
55.84,159
56.08,198
56.32,15
56.56,8
56.8,10
57.04,139
57.28,87
57.52,5
57.76,3
58,14
58.24,11
58.48,6
58.72,7
58.96,3
59.2,4
59.44,3
59.68,3
59.92,6
60.16,2
60.4,4
60.64,4
60.88,7
61.12,2
61.36,6
61.6,34
61.84,12
62.08,2
62.32,7
62.56,13
62.8,3
63.04,2
63.28,4
63.52,3
63.76,2
64,3
64.24,6
64.48,3
64.72,6
64.96,5
65.2,2
65.44,6
65.68,4
65.92,1
66.16,3
66.4,2
66.64,13
66.88,11
67.12,3
67.36,1
67.6,2
67.84,2
68.08,4
68.32,2
68.56,4
68.8,5
69.04,7
69.28,4
69.52,26
69.76,22
70,14
70.24,4
70.48,7
70.72,4
70.96,4
71.2,6
71.44,8
71.68,41
71.92,52
72.16,12
72.4,17
72.64,118
72.88,67
73.12,11
73.36,8
73.6,2
73.84,2
74.08,5
74.32,6
74.56,4
74.8,4
75.04,2
75.28,4
75.52,6
75.76,3
76,4
76.24,12
76.48,58
76.72,34
76.96,13
77.2,12
77.44,50
77.68,31
77.92,7
78.16,10
78.4,4
78.64,8
78.88,6
79.12,8
79.36,63
79.6,27
79.84,11
80,3