File: data/xrd_icdd_PDF/00-052-1682 (PD3).csv
5,1519
5.46,1465
5.92,1319
6.38,1280
6.84,1155
7.3,1205
7.76,1100
8.22,1171
8.68,1169
9.14,1116
9.6,1099
10.06,1086
10.52,1089
10.98,1093
11.44,1148
11.9,1085
12.36,1610
12.82,1680
13.28,1190
13.74,1152
14.2,1062
14.66,1092
15.12,1020
15.58,959
16.04,929
16.5,929
16.96,942
17.42,942
17.88,927
18.34,915
18.8,879
19.26,892
19.72,869
20.18,910
20.64,842
21.1,920
21.56,1115
22.02,3793
22.48,977
22.94,956
23.4,939
23.86,897
24.32,845
24.78,849
25.24,1086
25.7,896
26.16,877
26.62,897
27.08,830
27.54,919
28,1125
28.46,17237
28.92,992
29.38,927
29.84,920
30.3,1065
30.76,1256
31.22,29561
31.68,1146
32.14,944
32.6,915
33.06,882
33.52,945
33.98,1035
34.44,912
34.9,837
35.36,814
35.82,935
36.28,928
36.74,813
37.2,906
37.66,946
38.12,1715
38.58,5893
39.04,996
39.5,846
39.96,754
40.42,790
40.88,776
41.34,778
41.8,780
42.26,787
42.72,1983
43.18,766
43.64,767
44.1,774
44.56,6599
45.02,888
45.48,699
45.94,770
46.4,877
46.86,897
47.32,780
47.78,730
48.24,941
48.7,1018
49.16,769
49.62,823
50.08,1727
50.54,1039
51,778
51.46,748
51.92,993
52.38,876
52.84,771
53.3,901
53.76,3608
54.22,762
54.68,684
55.14,701
55.6,713
56.06,695
56.52,715
56.98,989
57.44,767
57.9,762
58.36,727
58.82,1550
59.28,825
59.74,866
60.2,4319
60.66,1630
61.12,869
61.58,1043
62.04,1018
62.5,691
62.96,682
63.42,794
63.88,726
64.34,731
64.8,1080
65.26,976
65.72,763
66.18,1042
66.64,1270
67.1,747
67.56,676
68.02,666
68.48,695
68.94,733
69.4,2047
69.86,792
70.32,707
70.78,700
71.24,760
71.7,696
72.16,757
72.62,1233
73.08,688
73.54,794
74,1327
74.46,697
74.92,701
75.38,1002
75.84,716
76.3,792
76.76,691
77.22,718
77.68,860
78.14,3877
78.6,750
79.06,662
79.52,682
79.98,642
80.44,658
80.9,1115
81.36,671
81.82,662
82.28,1125
82.74,650
83.2,725
83.66,1578
84.12,732
84.58,618
85.04,757
85.5,657
85.96,659
86.42,1775
86.88,781
87.34,641
87.8,588
88.26,656
88.72,702
89.18,1770
89.64,793
90.1,646
90.56,585
91.02,635
91.48,625
91.94,784
92.4,630
92.86,616
93.32,732
93.78,652
94.24,704
94.7,2411
95.16,878
95.62,603
96.08,919
96.54,647
97,677
97.46,1545
97.92,739
98.38,713
98.84,898
99.3,852
99.76,681
100.22,1368
100.68,962
101.14,651
101.6,669
102.06,711
102.52,632
102.98,883
103.44,883
103.9,634
104.36,661
104.82,648
105.28,691
105.74,1260
106.2,737
106.66,708
107.12,781
107.58,847
108.04,647
108.5,651
108.96,673
109.42,618
109.88,680
110.34,1202
110.8,882
111.26,980
111.72,2660
112.18,1630
112.64,725
113.1,613
113.56,612
114.02,655
114.48,964
114.94,814
115.4,613
115.86,653
116.32,652
116.78,657
117.24,634
117.7,1305
118.16,972
118.62,689
119.08,776
119.54,729
120,632
120.46,738
120.92,777
121.38,729
121.84,666
122.3,619
122.76,809
123.22,739
123.68,668
124.14,859
124.6,761
125.06,703
125.52,672
125.98,685
126.44,701
126.9,656
127.36,722
127.82,868
128.28,788
128.74,709
129.2,700
129.66,696
130.12,724
130.58,1023
131.04,1450
131.5,1543
131.96,1559
132.42,770
132.88,929
133.34,748
133.8,827
134.26,764
134.72,1417
135.18,1084
135.64,936
136.1,856
136.56,732
137.02,1033
137.48,709
137.94,785
138.4,740
138.86,789
139.32,804
139.78,710
140,742