File: data/xrd_icdd_PDF/00-054-1204 (PD3).csv
3,747
3.3,737
3.6,674
3.9,706
4.2,663
4.5,617
4.8,612
5.1,599
5.4,568
5.7,649
6,692
6.3,741
6.6,729
6.9,667
7.2,688
7.5,670
7.8,729
8.1,845
8.4,717
8.7,787
9,889
9.3,905
9.6,924
9.9,993
10.2,1106
10.5,1100
10.8,1167
11.1,1203
11.4,1210
11.7,1270
12,1251
12.3,1272
12.6,1392
12.9,1285
13.2,1444
13.5,1371
13.8,1790
14.1,3605
14.4,2298
14.7,12069
15,1596
15.3,1466
15.6,1423
15.9,1486
16.2,1462
16.5,1555
16.8,1526
17.1,1905
17.4,3614
17.7,1496
18,1445
18.3,1508
18.6,1505
18.9,1453
19.2,1399
19.5,1482
19.8,1441
20.1,1474
20.4,1492
20.7,1445
21,1470
21.3,1512
21.6,1457
21.9,1524
22.2,2193
22.5,1473
22.8,1402
23.1,1436
23.4,1608
23.7,2349
24,1557
24.3,1581
24.6,1473
24.9,1498
25.2,1455
25.5,1599
25.8,1943
26.1,1668
26.4,1517
26.7,1732
27,1683
27.3,2079
27.6,1795
27.9,2064
28.2,13611
28.5,13508
28.8,3412
29.1,1913
29.4,3928
29.7,12890
30,1911
30.3,1777
30.6,1758
30.9,1727
31.2,2041
31.5,15661
31.8,2045
32.1,1685
32.4,1649
32.7,1508
33,1601
33.3,1631
33.6,1675
33.9,5345
34.2,1782
34.5,2053
34.8,2643
35.1,4050
35.4,1560
35.7,1720
36,1943
36.3,2113
36.6,1655
36.9,2358
37.2,2340
37.5,1636
37.8,1664
38.1,1681
38.4,1909
38.7,1589
39,1506
39.3,1540
39.6,1475
39.9,1529
40.2,1512
40.5,1566
40.8,1605
41.1,1600
41.4,1500
41.7,1620
42,1809
42.3,2352
42.6,1870
42.9,3153
43.2,1680
43.5,1648
43.8,2119
44.1,1956
44.4,1570
44.7,1603
45,4609
45.3,2452
45.6,1587
45.9,1747
46.2,1575
46.5,1668
46.8,1862
47.1,1658
47.4,1663
47.7,2564
48,3300
48.3,3046
48.6,3159
48.9,2192
49.2,1768
49.5,2850
49.8,2023
50.1,2965
50.4,1738
50.7,1837
51,4875
51.3,2100
51.6,2088
51.9,4052
52.2,1873
52.5,2785
52.8,2160
53.1,2004
53.4,3662
53.7,2179
54,1730
54.3,1629
54.6,1611
54.9,1631
55.2,1964
55.5,2425
55.8,7127
56.1,1858
56.4,2018
56.7,3544
57,1737
57.3,1776
57.6,1788
57.9,2003
58.2,3715
58.5,2151
58.8,3993
59.1,1785
59.4,1937
59.7,2825
60,1620
60.3,1695
60.6,1638
60.9,1727
61.2,1793
61.5,2492
61.8,2285
62.1,2121
62.4,1658
62.7,2099
63,1828
63.3,3933
63.6,2651
63.9,1910
64.2,2519
64.5,1854
64.8,2448
65.1,1832
65.4,2405
65.7,4342
66,1913
66.3,1622
66.6,1681
66.9,1692
67.2,1671
67.5,2012
67.8,2156
68.1,1738
68.4,2246
68.7,1949
69,2343
69.3,1733
69.6,1931
69.9,2117
70.2,1713
70.5,1781
70.8,1623
71.1,1868
71.4,1785
71.7,1620
72,1614
72.3,1603
72.6,1593
72.9,1572
73.2,1603
73.5,1769
73.8,1902
74.1,3135
74.4,1847
74.7,1645
75,1713
75.3,1739
75.6,1781
75.9,1872
76.2,2032
76.5,2092
76.8,2249
77.1,2631
77.4,1830
77.7,1818
78,2160
78.3,2567
78.6,3128
78.9,2533
79.2,2400
79.5,2072
79.8,4929
80.1,3185
80.4,1956
80.7,1718
81,2139
81.3,2356
81.6,1782
81.9,2192
82.2,1996
82.5,2446
82.8,1967
83.1,1789
83.4,1757
83.7,1880
84,2126
84.3,2074
84.6,2144
84.9,1777
85.2,2207
85.5,2423
85.8,2001
86.1,1867
86.4,1714
86.7,1803
87,1777
87.3,1738
87.6,2002
87.9,1947
88.2,1787
88.5,1743
88.8,2267
89.1,3438
89.4,2602
89.7,1790
90,1804