File: data/xrd_icdd_PDF/00-067-0344 (PD3).csv
2.6127,38.03929
3.1127,38.91472
3.6127,42.1566
4.1127,86.76996
4.6127,427.426
5.1127,808.514
5.6127,975.65
6.1127,963.101
6.6127,896.668
7.1127,901.893
7.6127,822.879
8.1127,819.746
8.6127,736.922
9.1127,713.972
9.6127,699.089
10.1127,683.432
10.6127,641.375
11.1127,631.019
11.6127,617.295
12.1127,599.419
12.6127,623.157
13.1127,595.9679
13.6127,590.275
14.1127,583.519
14.6127,554.528
15.1127,582.731
15.6127,635.211
16.1127,631.622
16.6127,591.548
17.1127,590.375
17.6127,557.138
18.1127,625.423
18.6127,674.599
19.1127,610.899
19.6127,553.82
20.1127,574.341
20.6127,528.199
21.1127,554.217
21.6127,516.79
22.1127,521.72
22.6127,552.787
23.1127,550.9083
23.6127,547.714
24.1127,557.618
24.6127,593.699
25.1127,559.162
25.6127,586.449
26.1127,647.975
26.6127,665.318
27.1127,577.019
27.6127,531.015
28.1127,546.179
28.6127,508.211
29.1127,530.768
29.6127,558.464
30.1127,695.551
30.6127,1339.71
31.1127,1973.16
31.6127,763.878
32.1127,928.955
32.6127,655.956
33.1127,577.039
33.6127,627.686
34.1127,612.2766
34.6127,597.403
35.1127,611.25
35.6127,592.0656
36.1127,572.06
36.6127,774.652
37.1127,2234.08
37.6127,5145.03
38.1127,9272.43
38.6127,12419.9
39.1127,1278.04
39.6127,722.6
40.1127,589.1559
40.6127,624.918
41.1127,713.756
41.6127,1751.35
42.1127,7350.04
42.6127,5093.43
43.1127,708.839
43.6127,638.523
44.1127,759.663
44.6127,698.291
45.1127,741.2627
45.6127,1059.12
46.1127,671.441
46.6127,542.857
47.1127,542.921
47.6127,534.185
48.1127,566.557
48.6127,833.046
49.1127,2208.34
49.6127,1236.9
50.1127,2012.33
50.6127,2873.8
51.1127,2186.23
51.6127,693.57
52.1127,573.808
52.6127,704.71
53.1127,949.0554
53.6127,630.532
54.1127,1104.04
54.6127,1334.88
55.1127,1376.81
55.6127,626.04
56.1127,752.183
56.6127,2469.86
57.1127,1235.47
57.6127,1089.98
58.1127,1839.83
58.6127,595.754
59.1127,561.494
59.6127,578.7
60.1127,607.789
60.6127,798.926
61.1127,1696.21
61.6127,4199.94
62.1127,3629.56
62.6127,799.079
63.1127,653.903
63.6127,635.705
64.1127,996.836
64.6127,4201.36
65.1127,1076.96
65.6127,624.848
66.1127,751.686
66.6127,3036.67
67.1127,3709.51
67.6127,1917.69
68.1127,1007.01
68.6127,594.508
69.1127,578.5908
69.6127,575.232
70.1127,679.122
70.6127,925.6692
71.1127,3226.66
71.6127,2004.45
72.1127,723.58
72.6127,616.6746
73.1127,637.729
73.6127,835.119
74.1127,633.022
74.6127,632.298
75.1127,676.592
75.6127,619.606
76.1127,2552.41
76.6127,2016.28
77.1127,650.796
77.6127,680.814
78.1127,575.4141
78.6127,719.873
79.1127,2662.15
79.6127,3250.66
80.1127,1913.55
80.6127,4569.95
81.1127,7519.83
81.6127,1253.31
82.1127,770.258
82.6127,2431.09
83.1127,2603.46
83.6127,1250.99
84.1127,677.711
84.6127,3191.93
85.1127,1541.98
85.6127,1540.32
86.1127,1222.2
86.6127,3960.24
87.1127,826.933
87.6127,800.112
88.1127,689.869
88.6127,1320.68
89.1127,722.81
89.6127,1071.11
90.1127,929.116
90.6127,779.364
91.1127,711.0743
91.6127,671.736
92.1127,2167.37
92.6127,2374.48
93.1127,1561.4
93.6127,880.479
94.1127,725.767
94.6127,1914.36
95.1127,1682.77
95.6127,1152.45
96.1127,611.803
96.6127,732.783
97.1127,821.321
97.6127,2025.97
98.1127,2000.22
98.6127,1057.73
99.1127,2766.34
99.6127,749.5421
100.1127,768.398
100.6127,1021.1
101.1127,884.017
101.6127,964.415
102.1127,687.101
102.6127,1811.46
103.1127,1945.72
103.6127,953.219
104.1127,649.196
104.6127,662.2326
105.1127,934.773
105.6127,633.641
106.1127,793.62
106.6127,2376.71
107.1127,3410.53
107.6127,1198.25
108.1127,1392.55
108.6127,677.848
109.1127,599.327
109.6127,602.54
110.1127,696.014
110.6127,622.335
111.1127,625.778
111.6127,623.808
112.1127,1046.28
112.6127,1899.71
113.1127,2519.16
113.6127,886.697
114.1127,630.86
114.6127,659.51
115.1127,832.461
115.6127,1509.52
116.1127,1248.86
116.6127,2726.69
117.1127,2612.38
117.6127,1402.52
118.1127,1232.33
118.6127,864.425
119.1127,876.963
119.6127,903.464
120.1127,2378.78
120.6127,4853.42
121.1127,2831.56
121.6127,968.985
122.1127,2918.19
122.6127,1650.78
123.1127,1246.58
123.6127,4235.58
124.1127,1276.9
124.6127,716.835
125.1127,668.244
125.6127,770.07
126.1127,1684.18
126.6127,1421.72
127.1127,2460.47
127.6127,1169.01
128.1127,947.866
128.6127,1161.7
129.1127,765.418
129.6127,1522.4
130.1127,2519.07
130.6127,1660.01
131.1127,1072.48
131.6127,1029.72
132.1127,1405.76
132.6127,1828.38
133.1127,984.923
133.6127,786.572
134.1127,1770.66
134.6127,3750.57
135.1127,2203.25
135.6127,943.012
136.1127,684.7005
136.6127,648.107
137.1127,652.478
137.6127,758.675
138.1127,967.396
138.6127,1856.58
139.1127,2204.15
139.6127,1208.85
140.1127,634.096
140.3627,806.469