File: data/xrd_icdd_PDF/00-073-0865 (PD3).csv
10,607
10.24,609
10.48,583
10.72,542
10.96,595
11.2,593
11.44,590
11.68,550
11.92,569
12.16,558
12.4,555
12.64,538
12.88,592
13.12,537
13.36,539
13.6,525
13.84,489
14.08,520
14.32,504
14.56,540
14.8,546
15.04,534
15.28,542
15.52,561
15.76,551
16,583
16.24,536
16.48,595
16.72,528
16.96,550
17.2,516
17.44,604
17.68,658
17.92,710
18.16,2695
18.4,976
18.64,623
18.88,625
19.12,608
19.36,676
19.6,705
19.84,577
20.08,597
20.32,839
20.56,706
20.8,671
21.04,577
21.28,594
21.52,608
21.76,599
22,589
22.24,563
22.48,569
22.72,551
22.96,531
23.2,568
23.44,606
23.68,534
23.92,526
24.16,488
24.4,553
24.64,589
24.88,545
25.12,1020
25.36,2566
25.6,844
25.84,7049
26.08,1590
26.32,1072
26.56,3246
26.8,685
27.04,647
27.28,532
27.52,501
27.76,491
28,478
28.24,586
28.48,711
28.72,511
28.96,485
29.2,439
29.44,599
29.68,526
29.92,467
30.16,545
30.4,476
30.64,949
30.88,1244
31.12,411
31.36,537
31.6,518
31.84,501
32.08,400
32.32,432
32.56,414
32.8,422
33.04,425
33.28,883
33.52,404
33.76,396
34,463
34.24,592
34.48,459
34.72,504
34.96,495
35.2,391
35.44,395
35.68,426
35.92,420
36.16,436
36.4,422
36.64,510
36.88,4017
37.12,1869
37.36,466
37.6,583
37.84,613
38.08,857
38.32,389
38.56,370
38.8,410
39.04,405
39.28,354
39.52,377
39.76,372
40,408
40.24,428
40.48,514
40.72,1816
40.96,483
41.2,438
41.44,1895
41.68,1357
41.92,658
42.16,484
42.4,610
42.64,360
42.88,403
43.12,412
43.36,534
43.6,385
43.84,313
44.08,381
44.32,361
44.56,407
44.8,951
45.04,1284
45.28,1852
45.52,603
45.76,468
46,1427
46.24,1477
46.48,2597
46.72,511
46.96,429
47.2,369
47.44,358
47.68,324
47.92,359
48.16,426
48.4,332
48.64,346
48.88,353
49.12,329
49.36,357
49.6,403
49.84,513
50.08,361
50.32,359
50.56,393
50.8,324
51.04,347
51.28,302
51.52,335
51.76,423
52,448
52.24,322
52.48,326
52.72,420
52.96,463
53.2,1733
53.44,810
53.68,429
53.92,358
54.16,343
54.4,438
54.64,526
54.88,351
55.12,323
55.36,601
55.6,596
55.84,423
56.08,1187
56.32,612
56.56,380
56.8,398
57.04,373
57.28,443
57.52,512
57.76,395
58,420
58.24,343
58.48,302
58.72,297
58.96,333
59.2,405
59.44,343
59.68,341
59.92,486
60.16,1392
60.4,505
60.64,332
60.88,485
61.12,496
61.36,368
61.6,317
61.84,333
62.08,307
62.32,439
62.56,548
62.8,337
63.04,336
63.28,372
63.52,430
63.76,415
64,380
64.24,582
64.48,388
64.72,354
64.96,326
65.2,315
65.44,353
65.68,329
65.92,293
66.16,315
66.4,405
66.64,317
66.88,300
67.12,278
67.36,300
67.6,389
67.84,542
68.08,438
68.32,346
68.56,290
68.8,300
69.04,274
69.28,299
69.52,390
69.76,398
70,285
70.24,265
70.48,286
70.72,267
70.96,282
71.2,260
71.44,254
71.68,367
71.92,382
72.16,436
72.4,339
72.64,305
72.88,279
73.12,405
73.36,540
73.6,474
73.84,344
74.08,323
74.32,480
74.56,379
74.8,262
75.04,254
75.28,262
75.52,257
75.76,244
76,264
76.24,250
76.48,240
76.72,232
76.96,251
77.2,248
77.44,259
77.68,246
77.92,268
78.16,259
78.4,250
78.64,323
78.88,253
79.12,269
79.36,246
79.6,273
79.84,408
80,392