File: data/xrd_icdd_PDF/00-064-0303 (PD3).csv
5,2520
5.32,2277
5.64,2280
5.96,1830
6.28,1875
6.6,1728
6.92,1692
7.24,1593
7.56,1470
7.88,1479
8.2,1443
8.52,1434
8.84,1167
9.16,1221
9.48,1167
9.8,1149
10.12,1110
10.44,1041
10.76,1092
11.08,972
11.4,984
11.72,1056
12.04,900
12.36,882
12.68,810
13,720
13.32,729
13.64,723
13.96,681
14.28,729
14.6,699
14.92,651
15.24,1284
15.56,639
15.88,600
16.2,537
16.52,507
16.84,471
17.16,474
17.48,444
17.8,441
18.12,669
18.44,570
18.76,435
19.08,441
19.4,438
19.72,408
20.04,450
20.36,369
20.68,420
21,438
21.32,612
21.64,348
21.96,360
22.28,372
22.6,426
22.92,1839
23.24,609
23.56,366
23.88,318
24.2,339
24.52,315
24.84,351
25.16,318
25.48,393
25.8,294
26.12,375
26.44,657
26.76,1011
27.08,5445
27.4,492
27.72,438
28.04,531
28.36,861
28.68,753
29,1743
29.32,40074
29.64,1986
29.96,2433
30.28,39777
30.6,2640
30.92,29217
31.24,2298
31.56,969
31.88,1860
32.2,27417
32.52,4506
32.84,40791
33.16,2007
33.48,4812
33.8,25668
34.12,1137
34.44,576
34.76,357
35.08,600
35.4,474
35.72,381
36.04,291
36.36,300
36.68,366
37,1446
37.32,282
37.64,234
37.96,207
38.28,270
38.6,228
38.92,210
39.24,318
39.56,648
39.88,1332
40.2,2931
40.52,425
40.84,405
41.16,693
41.48,2232
41.8,420
42.12,1395
42.44,8616
42.76,864
43.08,1230
43.4,3507
43.72,3753
44.04,10851
44.36,660
44.68,408
45,273
45.32,366
45.64,666
45.96,405
46.28,309
46.6,306
46.92,391
47.24,702
47.56,467
47.88,978
48.2,486
48.52,537
48.84,1260
49.16,23283
49.48,2112
49.8,663
50.12,657
50.44,1320
50.76,1179
51.08,852
51.4,399
51.72,357
52.04,465
52.36,900
52.68,1698
53,1539
53.32,14241
53.64,4410
53.96,1005
54.28,1512
54.6,966
54.92,666
55.24,903
55.56,7887
55.88,8715
56.2,1023
56.52,879
56.84,2427
57.16,6513
57.48,17160
57.8,3225
58.12,1692
58.44,1824
58.76,1041
59.08,618
59.4,1098
59.72,516
60.04,441
60.36,465
60.68,1437
61,7035
61.32,1062
61.64,597
61.96,1671
62.28,1419
62.6,8781
62.92,10044
63.24,4422
63.56,4647
63.88,3972
64.2,897
64.52,2754
64.84,1563
65.16,360
65.48,306
65.8,384
66.12,1929
66.44,999
66.76,783
67.08,1236
67.4,1653
67.72,411
68.04,402
68.36,540
68.68,1950
69,1179
69.32,1041
69.64,465
69.96,345
70.28,465
70.6,309
70.92,453
71.24,885
71.56,1962
71.88,882
72.2,420
72.52,714
72.84,2181
73.16,1437
73.48,2418
73.8,1008
74.12,444
74.44,504
74.76,399
75.08,888
75.4,627
75.72,336
76.04,351
76.36,669
76.68,708
77,366
77.32,390
77.64,453
77.96,636
78.28,3456
78.6,1509
78.92,4098
79.24,1470
79.56,1095
79.88,603
80.2,624
80.52,1140
80.84,3723
81.16,1209
81.48,891
81.8,3867
82.12,4653
82.44,2481
82.76,774
83.08,687
83.4,990
83.72,1458
84.04,774
84.36,369
84.68,381
85,975
85.32,990
85.64,432
85.96,654
86.28,1488
86.6,1182
86.92,1872
87.24,1587
87.56,1386
87.88,1875
88.2,3270
88.52,5016
88.84,2589
89.16,1368
89.48,1581
89.8,2679
90.12,2205
90.44,813
90.76,1107
91.08,1296
91.4,750
91.72,870
92.04,2268
92.36,3372
92.68,2343
93,1194
93.32,1173
93.64,882
93.96,1335
94.28,1812
94.6,1395
94.92,2238
95.24,1614
95.56,792
95.88,597
96.2,1656
96.52,1038
96.84,381
97.16,363
97.48,345
97.8,330
98.12,432
98.44,1047
98.76,2226
99.08,1359
99.4,1017
99.72,1512
100,1185