File: data/xrd_icdd_PDF/00-071-0760 (PD3).csv
10,423
10.28546,402
10.57091,429
10.85637,410
11.14182,388
11.42728,446
11.71274,387
11.99819,419
12.28365,426
12.5691,411
12.85456,397
13.14002,419
13.42547,460
13.71093,395
13.99638,439
14.28184,404
14.5673,431
14.85275,409
15.13821,393
15.42366,461
15.70912,431
15.99458,436
16.28003,445
16.56549,464
16.85094,422
17.1364,411
17.42186,439
17.70731,414
17.99277,421
18.27822,466
18.56368,450
18.84914,440
19.13459,418
19.42005,455
19.7055,418
19.99096,438
20.27642,479
20.56187,411
20.84733,452
21.13278,415
21.41824,461
21.7037,456
21.98915,466
22.27461,426
22.56006,467
22.84552,481
23.13098,464
23.41643,473
23.70189,456
23.98734,471
24.2728,473
24.55826,477
24.84371,477
25.12917,440
25.41462,449
25.70008,476
25.98554,450
26.27099,485
26.55645,460
26.8419,446
27.12736,503
27.41282,425
27.69827,411
27.98373,487
28.26918,479
28.55464,448
28.8401,479
29.12555,471
29.41101,479
29.69646,517
29.98192,492
30.26738,459
30.55283,520
30.83829,481
31.12374,624
31.4092,627
31.69466,528
31.98011,533
32.26557,484
32.55102,540
32.83648,473
33.12194,422
33.40739,499
33.69285,521
33.9783,506
34.26376,551
34.54922,743
34.83467,544
35.12013,556
35.40558,1037
35.69104,6732
35.9765,849
36.26195,627
36.54741,553
36.83286,504
37.11832,511
37.40378,503
37.68923,476
37.97469,526
38.26014,498
38.5456,506
38.83106,506
39.11651,541
39.40197,484
39.68742,535
39.97288,627
40.25834,1107
40.54379,566
40.82925,491
41.1147,490
41.40016,507
41.68562,470
41.97107,475
42.25653,474
42.54198,505
42.82744,474
43.1129,568
43.39835,548
43.68381,489
43.96926,468
44.25472,498
44.54018,448
44.82563,448
45.11109,504
45.39654,463
45.682,482
45.96746,482
46.25291,485
46.53837,496
46.82382,451
47.10928,483
47.39474,450
47.68019,547
47.96565,483
48.2511,501
48.53656,496
48.82202,442
49.10747,490
49.39293,483
49.67838,464
49.96384,481
50.2493,491
50.53475,485
50.82021,467
51.10566,490
51.39112,449
51.67658,506
51.96203,495
52.24749,433
52.53294,483
52.8184,471
53.10386,497
53.38931,516
53.67477,485
53.96022,446
54.24568,512
54.53114,464
54.81659,561
55.10205,736
55.3875,776
55.67296,498
55.95842,479
56.24387,496
56.52933,520
56.81478,516
57.10024,556
57.3857,492
57.67115,461
57.95661,459
58.24206,469
58.52752,476
58.81298,484
59.09843,499
59.38389,509
59.66934,434
59.9548,499
60.24026,483
60.52571,496
60.81117,626
61.09662,845
61.38208,528
61.66754,448
61.95299,460
62.23845,520
62.5239,510
62.80936,514
63.09482,462
63.38027,504
63.66573,521
63.95118,515
64.23664,477
64.5221,546
64.80755,770
65.09301,637
65.37846,562
65.66392,525
65.94938,441
66.23483,477
66.52029,501
66.80574,504
67.0912,459
67.37666,457
67.66211,462
67.94757,460
68.23302,466
68.51848,463
68.80394,447
69.08939,471
69.37485,469
69.6603,492
69.94576,558
70.23122,667
70.51667,532
70.80213,482
71.08758,454
71.37304,473
71.6585,461
71.94395,476
72.22941,456
72.51486,558
72.80032,605
73.08578,500
73.37123,468
73.65669,474
73.94214,470
74.2276,511
74.51306,482
74.79851,471
75.08397,437
75.36942,503
75.65488,542
75.94034,498
76.22579,471
76.51125,468
76.7967,428
77.08216,432
77.36762,481
77.65307,480
77.93853,447
78.22398,490
78.50944,492
78.7949,396
79.08035,479
79.36581,461
79.65126,451
79.93672,458
80.22218,477
80.50763,444
80.79309,458
81.07854,482
81.364,479
81.64946,439
81.93491,468
82.22037,441
82.50582,467
82.79128,424
83.07674,435
83.36219,501
83.64765,475
83.9331,484
84.21856,444
84.50402,477
84.78947,448
85.07493,500
85.36038,471
85.64584,478
85.9313,506
86.21675,511
86.50221,502
86.78766,522
87.07312,539
87.35858,451
87.64403,530
87.92949,484
88.21494,506
88.5004,486
88.78586,485
89.07131,454
89.35677,443
89.64222,458
89.92768,481
90.0038,443