File: data/xrd_icdd_PDF/00-071-0803 (PD3).csv
5.0332,8643
5.3932,8817
5.7532,8740
6.1132,8881
6.4732,8983
6.8332,8901
7.1932,8709
7.5532,8849
7.9132,8726
8.2732,8799
8.6332,8627
8.9932,8646
9.3532,8615
9.7132,8201
10.0732,8457
10.4332,8310
10.7932,8193
11.1532,8134
11.5132,8418
11.8732,8283
12.2332,8266
12.5932,8422
12.9532,8284
13.3132,8168
13.6732,8144
14.0332,8151
14.3932,8631
14.7532,8144
15.1132,8198
15.4732,8131
15.8332,8277
16.1932,8117
16.5532,8218
16.9132,8362
17.2732,8643
17.6332,9029
17.9932,9163
18.3532,8894
18.7132,8775
19.0732,8931
19.4332,9087
19.7932,9282
20.1532,9370
20.5132,9370
20.8732,9962
21.2332,10352
21.5932,9724
21.9532,10104
22.3132,11643
22.6732,10268
23.0332,10341
23.3932,10980
23.7532,10455
24.1132,10432
24.4732,10057
24.8332,10323
25.1932,10047
25.5532,10175
25.9132,9727
26.2732,9727
26.6332,9648
26.9932,9827
27.3532,9478
27.7132,9648
28.0732,9646
28.4332,9525
28.7932,11454
29.1532,14230
29.5132,9632
29.8732,9143
30.2332,9076
30.5932,11731
30.9532,8828
31.3132,8346
31.6732,8346
32.0332,8105
32.3932,7858
32.7532,7605
33.1132,7470
33.4732,7250
33.8332,6983
34.1932,7021
34.5532,8252
34.9132,6927
35.2732,6799
35.6332,9212
35.9932,7065
36.3532,6132
36.7132,8386
37.0732,6178
37.4332,5756
37.7932,6021
38.1532,5505
38.5132,5637
38.8732,5653
39.2332,5526
39.5932,5502
39.9532,5200
40.3132,5361
40.6732,5306
41.0332,5447
41.3932,5322
41.7532,5459
42.1132,5514
42.4732,5565
42.8332,5496
43.1932,7342
43.5532,5496
43.9132,5207
44.2732,5571
44.6332,5229
44.9932,5268
45.3532,5156
45.7132,5013
46.0732,5075
46.4332,5223
46.7932,5586
47.1532,5014
47.5132,6470
47.8732,5358
48.2332,6174
48.5932,6256
48.9532,5102
49.3132,4885
49.6732,5440
50.0332,4858
50.3932,4848
50.7532,4831
51.1132,4841
51.4732,4932
51.8332,4892
52.1932,4852
52.5532,4732
52.9132,5802
53.2732,4889
53.6332,4813
53.9932,4740
54.3532,4947
54.7132,4958
55.0732,5100
55.4332,4921
55.7932,4974
56.1532,5005
56.5132,5439
56.8732,5747
57.2332,5248
57.5932,5317
57.9532,5992
58.3132,5184
58.6732,5067
59.0332,4850
59.3932,4984
59.7532,4953
60.1132,4892
60.4732,4702
60.8332,4808
61.1932,5000
61.5532,5417
61.9132,4996
62.2732,4996
62.6332,5023
62.9932,4772
63.3532,4996
63.7132,4995
64.0732,5126
64.4332,4981
64.7932,5088
65.1532,5067
65.5132,5474
65.8732,5077
66.2332,5467
66.5932,5208
66.9532,4953
67.3132,4776
67.6732,5014
68.0332,4869
68.3932,4768
68.7532,4691
69.1132,4736
69.4732,5089
69.8332,5224
70.1932,4852
70.5532,5095
70.9132,4760
71.2732,4962
71.6332,4594
71.9932,4680
72.3532,4608
72.7132,4654
73.0732,4606
73.4332,4684
73.7932,4728
74.1532,4709
74.5132,4758
74.8732,4439
75.2332,4501
75.5932,4818
75.9532,4556
76.3132,4522
76.6732,4621
77.0332,4651
77.3932,4525
77.7532,4467
78.1132,4542
78.4732,4574
78.8332,4461
79.1932,4279
79.5532,4569
79.9132,4462
80.2732,4563
80.6332,4522
80.9932,4628
81.3532,4531
81.7132,4518
82.0732,4302
82.4332,4362
82.7932,4450
83.1532,4352
83.5132,4425
83.8732,4171
84.2332,4367
84.5932,4238
84.9532,4270
85.3132,4236
85.6732,4174
86.0332,4257
86.3932,4194
86.7532,4151
87.1132,4001
87.4732,4191
87.8332,4010
88.1932,4108
88.5532,4107
88.9132,4033
89.2732,4137
89.6332,4103
89.9932,4320
90.3532,3919
90.7132,4085
91.0732,4075
91.4332,4168
91.7932,4116
92.1532,3925
92.5132,3963
92.8732,4049
93.2332,3994
93.5932,4365
93.9532,4130
94.3132,3839
94.6732,4025
95.0332,3896
95.3932,4088
95.7532,4092
96.1132,4199
96.4732,4023
96.8332,4073
97.1932,3946
97.5532,3896
97.9132,3892
98.2732,3979
98.6332,4037
98.9932,4017
99.3532,3961
99.7132,4053
100.0732,3891
100.4332,3986
100.7932,4115
101.1532,4146
101.5132,4187
101.8732,4135
102.2332,4115
102.5932,4238
102.9532,4296
103.3132,4049
103.6732,4154
104.0332,4013
104.3932,4308
104.7532,3927
105.1132,4206
105.4732,4088
105.8332,4015
106.1932,3931
106.5532,4100
106.9132,4033
107.2732,4213
107.6332,4177
107.9932,4068
108.3532,4143
108.7132,4177
109.0132,4014