File: data/xrd_icdd_PDF/00-058-0246 (PD3).csv
10,2114
10.28,2071
10.56,2168
10.84,2142
11.12,1988
11.4,2144
11.68,2058
11.96,2155
12.24,2058
12.52,2084
12.8,2109
13.08,2152
13.36,2121
13.64,2072
13.92,2092
14.2,1990
14.48,2045
14.76,1958
15.04,2009
15.32,1931
15.6,1884
15.88,1934
16.16,1943
16.44,1929
16.72,2040
17,2487
17.28,1915
17.56,1954
17.84,1954
18.12,1877
18.4,1797
18.68,1868
18.96,1774
19.24,1765
19.52,1876
19.8,1824
20.08,1729
20.36,1811
20.64,1829
20.92,1765
21.2,1848
21.48,1799
21.76,1695
22.04,1738
22.32,1712
22.6,1766
22.88,1891
23.16,1857
23.44,2786
23.72,2032
24,1739
24.28,1645
24.56,1736
24.84,1659
25.12,1729
25.4,1712
25.68,1650
25.96,1665
26.24,1696
26.52,1681
26.8,1638
27.08,1644
27.36,1697
27.64,1661
27.92,1856
28.2,3503
28.48,1853
28.76,1639
29.04,1662
29.32,1643
29.6,1584
29.88,1673
30.16,1667
30.44,1657
30.72,1773
31,4110
31.28,1721
31.56,1655
31.84,1671
32.12,1731
32.4,1592
32.68,1704
32.96,1692
33.24,1680
33.52,1847
33.8,2532
34.08,4347
34.36,1869
34.64,1788
34.92,1689
35.2,1791
35.48,2563
35.76,2090
36.04,1646
36.32,1719
36.6,1757
36.88,1743
37.16,1776
37.44,2941
37.72,2543
38,2658
38.28,1771
38.56,1754
38.84,1719
39.12,2132
39.4,3526
39.68,1816
39.96,1710
40.24,1692
40.52,1676
40.8,1656
41.08,1628
41.36,1646
41.64,1675
41.92,1693
42.2,1694
42.48,1656
42.76,1578
43.04,1562
43.32,1641
43.6,1589
43.88,1576
44.16,1613
44.44,1686
44.72,2516
45,1902
45.28,1681
45.56,1581
45.84,1645
46.12,1656
46.4,1756
46.68,2427
46.96,1989
47.24,1715
47.52,1632
47.8,1629
48.08,1664
48.36,1699
48.64,1616
48.92,1594
49.2,1643
49.48,1580
49.76,1513
50.04,1583
50.32,1631
50.6,1633
50.88,1608
51.16,1594
51.44,1592
51.72,1714
52,1591
52.28,1589
52.56,1613
52.84,1626
53.12,1640
53.4,1742
53.68,1965
53.96,1695
54.24,1665
54.52,1624
54.8,1614
55.08,1725
55.36,2140
55.64,2107
55.92,1655
56.2,1650
56.48,1645
56.76,1658
57.04,1598
57.32,1622
57.6,1663
57.88,1605
58.16,1722
58.44,1956
58.72,1847
59,1665
59.28,1840
59.56,2186
59.84,2268
60.12,2498
60.4,1829
60.68,1629
60.96,1592
61.24,1657
61.52,1654
61.8,1600
62.08,1664
62.36,1597
62.64,1578
62.92,1596
63.2,1549
63.48,1577
63.76,1609
64.04,1603
64.32,1640
64.6,1910
64.88,1914
65.16,1680
65.44,1635
65.72,1611
66,1665
66.28,1671
66.56,1663
66.84,1797
67.12,1798
67.4,1683
67.68,1580
67.96,1627
68.24,1649
68.52,1624
68.8,1691
69.08,1846
69.36,1911
69.64,1702
69.92,1736
70.2,1669
70.48,1686
70.76,1614
71.04,1679
71.32,1646
71.6,1668
71.88,1634
72.16,1664
72.44,1681
72.72,1712
73,1670
73.28,1671
73.56,1764
73.84,1939
74.12,1756
74.4,1598
74.68,1621
74.96,1721
75.24,2009
75.52,1961
75.8,1814
76.08,1682
76.36,1628
76.64,1574
76.92,1603
77.2,1564
77.48,1685
77.76,1952
78.04,1882
78.32,1674
78.6,1700
78.88,1820
79.16,1770
79.44,1648
79.72,1599
80,1688
80.28,1615
80.56,1629
80.84,1686
81.12,1630
81.4,1672
81.68,1613
81.96,1692
82.24,1896
82.52,1788
82.8,1682
83.08,1657
83.36,1710
83.64,1675
83.92,1704
84.2,1750
84.48,1674
84.76,1643
85.04,1724
85.32,1679
85.6,1663
85.88,1693
86.16,1787
86.44,1762
86.72,1566
87,1664
87.28,1635
87.56,1633
87.84,1685
88.12,1683
88.4,1687
88.68,1674
88.96,1694
89.24,1695
89.52,1671
89.8,1764
89.98,1731