File: data/xrd_icdd_PDF/00-066-0133 (PD3).csv
20,2516.6
20.17992,2513.3
20.35984,2520.1
20.53975,2486.4
20.71967,2494.9
20.89959,2736.5
21.07951,3672.4
21.25943,2702.4
21.43934,3096
21.61926,2761.6
21.79918,2537.9
21.9791,2494.4
22.15902,2527
22.33894,2469.2
22.51885,2480.8
22.69877,2513.1
22.87869,2527.7
23.05861,2557.8
23.23853,2536.7
23.41844,2512.1
23.59836,2495.2
23.77828,2526.6
23.9582,2497.5
24.13812,2539.2
24.31803,2511
24.49795,2538.5
24.67787,2537.4
24.85779,2562.2
25.03771,2554.1
25.21762,2530.2
25.39754,2539.1
25.57746,2554.7
25.75738,2516.6
25.9373,2522.1
26.11722,2537.5
26.29713,2571.5
26.47705,2574.8
26.65697,2588.7
26.83689,2703.6
27.01681,3536.7
27.19672,2797.7
27.37664,2644.2
27.55656,2580.3
27.73648,2604.5
27.9164,2561
28.09631,2586
28.27623,2587.9
28.45615,2540.9
28.63607,2595.8
28.81599,2592.2
28.99591,2585.8
29.17582,2584.2
29.35574,2625.8
29.53566,2626.5
29.71558,2623.6
29.8955,2641.1
30.07541,2601.5
30.25533,2638
30.43525,2655.5
30.61517,2664.8
30.79509,2709.3
30.975,2710.7
31.15492,2855.7
31.33484,3697.9
31.51476,13467.3
31.69468,12636.8
31.87459,3411
32.05451,3000.9
32.23443,2889.1
32.41435,2991.3
32.59427,5519.5
32.77419,21572
32.9541,4215
33.13402,3119.7
33.31394,2896.9
33.49386,2928.5
33.67378,3401.7
33.85369,12335.8
34.03361,17513.2
34.21353,3940.1
34.39345,3189.3
34.57337,2972.7
34.75328,2859.4
34.9332,2826.2
35.11312,2868.5
35.29304,2974.5
35.47296,3282.2
35.65287,4272.2
35.83279,12923.3
36.01271,43896.5
36.19263,7820
36.37255,4474.6
36.55247,3743.1
36.73238,3572.7
36.9123,7604.1
37.09222,12859.3
37.27214,3761.4
37.45206,3067.7
37.63197,2851.9
37.81189,2775.5
37.99181,2703.9
38.17173,2692.5
38.35165,2672.4
38.53156,2661
38.71148,2669.7
38.8914,2681.2
39.07132,2644.3
39.25124,2649.3
39.43115,2706
39.61107,2747.8
39.79099,2671.7
39.97091,2621.1
40.15083,2657.5
40.33075,2688.8
40.51066,2647.8
40.69058,2652.9
40.8705,2647
41.05042,2626
41.23034,2660.8
41.41025,2665.7
41.59017,2638.2
41.77009,2676.6
41.95001,2664.7
42.12993,2714.7
42.30984,2735.1
42.48976,2680.5
42.66968,2661.4
42.8496,2664.2
43.02952,2633.3
43.20943,2660
43.38935,2667.4
43.56927,2637.7
43.74919,2635.4
43.92911,2637.3
44.10903,2656.6
44.28894,2728.8
44.46886,2983.5
44.64878,2735
44.8287,2615.1
45.00862,2630.7
45.18853,2616.3
45.36845,2671.5
45.54837,2617.3
45.72829,2614.2
45.90821,2637.7
46.08812,2651.6
46.26804,2670.6
46.44796,2672.2
46.62788,2777
46.8078,3113.8
46.98772,6751.4
47.16763,6273.1
47.34755,3135
47.52747,3035.4
47.70739,3702.4
47.88731,8306.4
48.06722,4261.1
48.24714,2942.6
48.42706,2733.6
48.60698,2695.6
48.7869,2684.6
48.96681,2624.6
49.14673,2647.2
49.32665,2635.2
49.50657,2635.1
49.68649,2630
49.8664,2683.6
50.04632,2722.5
50.22624,2654.8
50.40616,2650.3
50.58608,2639.6
50.766,2629.5
50.94591,2663.6
51.12583,2689.4
51.30575,2657.2
51.48567,2678.4
51.66559,2638.2
51.8455,2653.6
52.02542,2628.2
52.20534,2672.5
52.38526,2644.2
52.56518,2672.9
52.74509,2648.5
52.92501,2633.9
53.10493,2695.9
53.28485,2919.3
53.46477,2892.9
53.64468,2715.1
53.8246,2801.2
54.00452,2782.3
54.18444,2701
54.36436,2701.4
54.54428,2680.6
54.72419,2693.6
54.90411,2801.5
55.08403,3227.1
55.26395,3358.5
55.44387,6747.9
55.62378,6527.8
55.8037,3215.7
55.98362,2826
56.16354,2782.1
56.34346,2817.1
56.52337,2840.9
56.70329,2849.7
56.88321,2845.6
57.06313,2814.7
57.24305,2856.2
57.42296,3229.3
57.60288,5321.4
57.7828,9255.1
57.96272,5161.4
58.14264,3265.5
58.32256,2977.8
58.50247,2852.8
58.68239,2794.2
58.86231,2739.3
59.04223,2734
59.22215,2753.6
59.40206,2724.5
59.58198,2738.1
59.7619,2709.8
59.94182,2762.4
60.12174,2752.8
60.30165,2801.3
60.48157,3045.1
60.66149,3142.8
60.84141,2866.1
61.02133,2820.1
61.20124,2859.3
61.38116,2885.5
61.56108,2915.8
61.741,3268.8
61.92092,5251.9
62.10084,10020
62.28075,6476.9
62.46067,3655
62.64059,4096
62.82051,4961.6
63.00043,3778.6
63.18034,3042.8
63.36026,2866.6
63.54018,2885.4
63.7201,2829.1
63.90002,2785.7
64.07993,2783.5
64.25985,2739.3
64.43977,2770.2
64.61969,2801.6
64.79961,2889.2
64.97952,2788.5
65.15944,2771.7
65.33936,2757.8
65.51928,2821.9
65.6992,2984.5
65.87912,3956.7
66.05903,3980.8
66.23895,3363.1
66.41887,3218.9
66.59879,4960
66.77871,4859.8
66.95862,3583.7
67.13854,2926.6
67.31846,2830.2
67.49838,2796.5
67.6783,2812.6
67.85821,2826.4
68.03813,2966.9
68.21805,3156.5
68.39797,3729.9
68.57789,7901.3
68.75781,7748.3
68.93772,5164.2
69.11764,3496.5
69.29756,3085.4
69.47748,2889.3
69.6574,2796.2
69.83731,2760.2
69.97725,2726.8