File: data/xrd_icdd_PDF/00-068-0200 (PD3).csv
4.30529,381.429
4.58529,390.3403
4.86529,415.121
5.14529,407.499
5.42529,373.472
5.70529,395.217
5.98529,410.645
6.26529,371.1606
6.54529,373.689
6.82529,390.49
7.10529,385.572
7.38529,386.611
7.66529,353.165
7.94529,392.8741
8.22529,367.77
8.50529,363.331
8.78529,364.898
9.06529,359.365
9.34529,356.174
9.62529,369.993
9.90529,377.2529
10.18529,362.976
10.46529,361.452
10.74529,375.51
11.02529,361.694
11.30529,395.574
11.58529,375.33
11.86529,366.507
12.14529,363.098
12.42529,354.3483
12.70529,344.4
12.98529,362.683
13.26529,320.827
13.54529,307.449
13.82529,289.7783
14.10529,303.526
14.38529,300.206
14.66529,262.82
14.94529,283.103
15.22529,271.6909
15.50529,271.657
15.78529,256.009
16.06529,235.7869
16.34529,260.059
16.62529,248.394
16.90529,245.812
17.18529,244.122
17.46529,215.597
17.74529,235.305
18.02529,231.064
18.30529,218.525
18.58529,222.111
18.86529,212.339
19.14529,208.04
19.42529,212.441
19.70529,197.596
19.98529,179.647
20.26529,204.141
20.54529,197.384
20.82529,181.962
21.10529,199.468
21.38529,177.497
21.66529,178.419
21.94529,174.064
22.22529,175.803
22.50529,174.54
22.78529,157.055
23.06529,155.347
23.34529,153.59
23.62529,147.23
23.90529,148.924
24.18529,144.161
24.46529,147.219
24.74529,137.753
25.02529,128.194
25.30529,145.087
25.58529,153.4721
25.86529,127.42
26.14529,152.805
26.42529,139.805
26.70529,130.834
26.98529,139.3373
27.26529,133.191
27.54529,151.871
27.82529,143.112
28.10529,153.72
28.38529,158.318
28.66529,180.176
28.94529,194.9346
29.22529,291.166
29.50529,385.805
29.78529,775.552
30.06529,2102.19
30.34529,2326.65
30.62529,884.455
30.90529,372.073
31.18529,259.973
31.46529,203.315
31.74529,166.897
32.02529,149.797
32.30529,150.735
32.58529,132.725
32.86529,129.462
33.14529,128.909
33.42529,130.4564
33.70529,124.427
33.98529,138.497
34.26529,202.487
34.54529,343.218
34.82529,298.478
35.10529,359.674
35.38529,404.632
35.66529,179.544
35.94529,119.009
36.22529,102.064
36.50529,92.83962
36.78529,88.30362
37.06529,90.10811
37.34529,78.31467
37.62529,77.46517
37.90529,78.74758
38.18529,70.61322
38.46529,66.31831
38.74529,76.43521
39.02529,75.47978
39.30529,71.45407
39.58529,66.7948
39.86529,55.72171
40.14529,63.17606
40.42529,59.17998
40.70529,48.10757
40.98529,59.40093
41.26529,70.24093
41.54529,50.58486
41.82529,67.75736
42.10529,62.88866
42.38529,60.20599
42.66529,84.28595
42.94529,85.27672
43.22529,80.44012
43.50529,64.33761
43.78529,67.66024
44.06529,62.58058
44.34529,47.06807
44.62529,54.38771
44.90529,57.87742
45.18529,68.34771
45.46529,56.21847
45.74529,61.09858
46.02529,45.86732
46.30529,68.89451
46.58529,58.47621
46.86529,59.40651
47.14529,68.48313
47.42529,81.01663
47.70529,73.66681
47.98529,59.97871
48.26529,77.84878
48.54529,80.82416
48.82529,100.864
49.10529,116.912
49.38529,157.632
49.66529,236.503
49.94529,476.871
50.22529,809.809
50.50529,782.967
50.78529,667.785
51.06529,368.223
51.34529,201.745
51.62529,115.171
51.90529,85.42952
52.18529,80.57349
52.46529,66.21321
52.74529,60.61797
53.02529,68.81571
53.30529,70.2192
53.58529,65.60134
53.86529,54.30612
54.14529,58.49055
54.42529,59.36342
54.70529,52.32833
54.98529,47.58152
55.26529,53.20809
55.54529,47.82557
55.82529,58.9481
56.10529,53.66854
56.38529,53.60277
56.66529,49.89493
56.94529,51.10397
57.22529,55.43396
57.50529,52.0568
57.78529,62.34495
58.06529,64.22746
58.34529,98.73708
58.62529,124.784
58.90529,191.8832
59.18529,293.238
59.46529,321.707
59.74529,310.578
60.02529,399.113
60.30529,529.575
60.58529,344.823
60.86529,183.731
61.14529,114.393
61.42529,86.69539
61.70529,72.95461
61.98529,81.9919
62.26529,84.34581
62.54529,106.879
62.82529,140.352
63.10529,150.712
63.38529,102.15
63.66529,72.85401
63.94529,57.24019
64.22529,47.08593
64.50529,44.25577
64.78529,43.74916
65.06529,55.43549
65.34529,39.35433
65.62529,38.56475
65.90529,36.87694
66.18529,36.99552
66.46529,39.04574
66.74529,35.05949
67.02529,28.36702
67.30529,38.5224
67.58529,40.91194
67.86529,34.9312
68.14529,36.35571
68.42529,43.4061
68.70529,42.04848
68.98529,34.55646
69.26529,36.336
69.54529,37.59604
69.82529,36.12536
70.10529,34.82652
70.38529,37.34978
70.66529,36.22012
70.94529,42.38395
71.22529,41.18966
71.50529,39.22718
71.78529,39.113
72.06529,42.708
72.34529,39.98836
72.62529,59.16664
72.90529,69.69571
73.18529,72.83192
73.46529,48.22966
73.74529,53.44684
74.02529,60.95889
74.30529,78.76088
74.58529,126.902
74.86529,118.982
75.14529,75.63444
75.42529,47.75703
75.70529,47.6828
75.98529,40.82695
76.26529,41.51855
76.54529,39.3188
76.82529,37.90866
77.10529,44.37487
77.38529,42.04822
77.66529,32.0626
77.94529,41.78553
78.22529,41.80834
78.50529,36.44185
78.78529,42.6374
79.06529,38.18355
79.34529,48.60929
79.62529,44.19802
79.90529,42.83406
80.18529,50.17288
80.46529,48.7997
80.74529,59.54928
81.02529,85.88696
81.30529,111.2855
81.58529,139.204
81.86529,208.085
82.14529,187.1199
82.42529,167.555
82.54529,173.632