File: data/xrd_icdd_PDF/00-057-0164 (PD3).csv
5,462
5.46,404
5.92,412
6.38,372
6.84,408
7.3,369
7.76,420
8.22,408
8.68,365
9.14,342
9.6,357
10.06,372
10.52,335
10.98,350
11.44,346
11.9,353
12.36,306
12.82,324
13.28,328
13.74,310
14.2,279
14.66,342
15.12,313
15.58,276
16.04,303
16.5,279
16.96,1584
17.42,303
17.88,296
18.34,289
18.8,2025
19.26,262
19.72,269
20.18,317
20.64,1858
21.1,289
21.56,243
22.02,259
22.48,272
22.94,876
23.4,234
23.86,262
24.32,213
24.78,234
25.24,253
25.7,231
26.16,256
26.62,317
27.08,1267
27.54,847
28,1513
28.46,428
28.92,2098
29.38,400
29.84,256
30.3,222
30.76,210
31.22,216
31.68,216
32.14,207
32.6,202
33.06,228
33.52,188
33.98,306
34.44,980
34.9,216
35.36,193
35.82,529
36.28,250
36.74,342
37.2,202
37.66,262
38.12,234
38.58,182
39.04,210
39.5,188
39.96,164
40.42,151
40.88,234
41.34,193
41.8,210
42.26,2411
42.72,350
43.18,202
43.64,182
44.1,164
44.56,169
45.02,1354
45.48,161
45.94,193
46.4,313
46.86,1764
47.32,196
47.78,169
48.24,172
48.7,156
49.16,177
49.62,240
50.08,177
50.54,313
51,1772
51.46,213
51.92,269
52.38,511
52.84,458
53.3,185
53.76,177
54.22,346
54.68,610
55.14,279
55.6,762
56.06,219
56.52,161
56.98,169
57.44,388
57.9,342
58.36,259
58.82,2275
59.28,250
59.74,676
60.2,1204
60.66,1310
61.12,210
61.58,182
62.04,164
62.5,164
62.96,243
63.42,193
63.88,180
64.34,296
64.8,433
65.26,973
65.72,930
66.18,202
66.64,1024
67.1,605
67.56,182
68.02,276
68.48,190
68.94,240
69.4,222
69.86,610
70.32,306
70.78,213
71.24,858
71.7,317
72.16,557
72.62,876
73.08,818
73.54,824
74,231
74.46,231
74.92,246
75.38,225
75.84,286
76.3,801
76.76,369
77.22,237
77.68,276
78.14,243
78.6,231
79.06,234
79.52,253
79.98,847
80.44,480
80.9,1183
81.36,317
81.82,303
82.28,493
82.74,243
83.2,262
83.66,276
84.12,520
84.58,449
85.04,286
85.5,458
85.96,306
86.42,243
86.88,213
87.34,234
87.8,511
88.26,778
88.72,686
89.18,279
89.64,266
90.1,484
90.56,279
91.02,250
91.48,342
91.94,400
92.4,1024
92.86,524
93.32,331
93.78,272
94.24,416
94.7,303
95.16,660
95.62,543
96.08,276
96.54,262
97,376
97.46,276
97.92,562
98.38,276
98.84,424
99.3,256
99.76,303
100.22,320
100.68,289
101.14,493
101.6,458
102.06,388
102.52,424
102.98,767
103.44,600
103.9,762
104.36,306
104.82,296
105.28,253
105.74,219
106.2,396
106.66,396
107.12,350
107.58,243
108.04,207
108.5,237
108.96,250
109.42,346
109.88,262
110.34,276
110.8,400
111.26,605
111.72,400
112.18,269
112.64,202
113.1,228
113.56,376
114.02,488
114.48,497
114.94,424
115.4,243
115.86,199
116.32,253
116.78,266
117.24,384
117.7,361
118.16,296
118.62,600
119.08,566
119.54,320
120,246
120.46,279
120.92,462
121.38,420
121.84,331
122.3,392
122.76,306
123.22,384
123.68,286
124.14,296
124.6,328
125.06,303
125.52,416
125.98,357
126.44,369
126.9,384
127.36,467
127.82,339
128.28,365
128.74,520
129.2,506
129.66,388
130.12,328
130.58,454
131.04,471
131.5,538
131.96,645
132.42,729
132.88,835
133.34,416
133.8,576
134.26,686
134.72,671
135.18,441
135.64,650
136.1,812
136.56,660
137.02,697
137.48,686
137.94,829
138.4,615
138.86,734
139.32,392
139.78,520
140,388