File: data/xrd_icdd_PDF/00-063-0370 (PD3).csv
5.011,3060
5.453,2678
5.89501,2291
6.33701,2129
6.77902,1981
7.22102,1873
7.66303,1742
8.10503,1649
8.54704,1592
8.98904,1630
9.43105,1878
9.87305,1423
10.31506,1392
10.75706,1345
11.19907,1242
11.64107,1176
12.08308,1195
12.52508,1153
12.96709,1125
13.40909,1101
13.8511,1046
14.2931,1070
14.73511,1029
15.17711,1049
15.61912,1001
16.06112,1022
16.50313,945
16.94513,946
17.38714,921
17.82914,931
18.27115,899
18.71315,979
19.15516,900
19.59716,876
20.03917,879
20.48117,844
20.92318,843
21.36518,845
21.80719,901
22.24919,841
22.6912,792
23.1332,795
23.57521,777
24.01721,788
24.45922,780
24.90122,871
25.34323,867
25.78523,5303
26.22724,804
26.66924,750
27.11125,735
27.55325,706
27.99526,836
28.43726,2265
28.87927,755
29.32127,750
29.76328,705
30.20528,812
30.64729,1775
31.08929,825
31.5313,885
31.9733,7683
32.41531,1322
32.85731,812
33.29932,675
33.74132,656
34.18333,633
34.62533,627
35.06734,655
35.50934,638
35.95135,1303
36.39335,774
36.83536,620
37.27736,625
37.71937,576
38.16137,761
38.60338,552
39.04538,568
39.48739,556
39.92939,618
40.3714,581
40.8134,547
41.25541,540
41.69741,511
42.13941,570
42.58142,578
43.02342,575
43.46543,955
43.90743,1472
44.34944,546
44.79144,631
45.23345,581
45.67545,530
46.11746,548
46.55946,512
47.00147,515
47.44347,577
47.88548,659
48.32748,1995
48.76949,1616
49.21149,646
49.6535,3104
50.0955,611
50.53751,578
50.97951,579
51.42152,1704
51.86352,550
52.30553,516
52.74753,587
53.18954,629
53.63154,545
54.07355,521
54.51555,528
54.95756,901
55.39956,3100
55.84157,587
56.28357,514
56.72558,523
57.16758,474
57.60959,559
58.05159,935
58.4936,725
58.9356,600
59.37761,588
59.81961,513
60.26162,523
60.70362,499
61.14563,496
61.58763,495
62.02964,491
62.47164,486
62.91365,476
63.35565,659
63.79766,701
64.23966,516
64.68167,499
65.12367,521
65.56568,496
66.00768,490
66.44969,533
66.89169,698
67.3337,1208
67.7757,686
68.21771,578
68.65971,673
69.10172,537
69.54372,567
69.98573,690
70.42773,517
70.86974,547
71.31174,521
71.75375,592
72.19575,715
72.63776,589
73.07976,1019
73.52177,529
73.96377,508
74.40578,485
74.84778,494
75.28979,974
75.73179,733
76.1738,600
76.6158,553
77.05781,483
77.49981,519
77.94182,771
78.38382,694
78.82582,483
79.26783,514
79.70983,702
80.15184,519
80.59384,474
81.03585,488
81.47785,534
81.91986,599
82.36186,505
82.80387,479
83.24587,537
83.68788,786
84.12988,624
84.57189,974
85.01389,749
85.4559,527
85.8979,640
86.33991,673
86.78191,535
87.22392,501
87.66592,503
88.10793,506
88.54993,500
88.99194,828
89.43394,725
89.87595,534
90.31795,466
90.75996,473
91.20196,532
91.64397,692
92.08597,650
92.52798,499
92.96998,463
93.41199,501
93.85399,463
94.296,507
94.738,435
95.18001,505
95.62201,776
96.06402,633
96.50602,682
96.94803,498
97.39003,530
97.83204,567
98.27404,517
98.71605,494
99.15805,503
99.60006,514
100.042,556
100.484,526
100.926,514
101.368,498
101.81,561
102.252,621
102.694,608
103.1361,585
103.5781,553
104.02,549
104.462,576
104.904,641
105.346,748
105.788,706
106.23,635
106.672,526
107.114,534
107.556,574
107.998,591
108.44,591
108.882,520
109.324,541
109.766,559
110.208,797
110.65,718
111.092,534
111.534,597
111.9762,588
112.4182,639
112.86,659
113.302,559
113.744,551
114.186,606
114.628,599
115.07,528
115.512,557
115.954,581
116.396,675
116.838,625
117.28,618
117.722,666
118.164,577
118.606,533
119.048,551
119.49,502
119.932,510
120.374,579
120.816,541
121.2583,521
121.7003,522
122.142,557
122.584,539
123.026,647
123.468,918
123.91,724
124.352,591
124.794,536
125.236,575
125.678,646
126.12,718
126.562,610
127.004,539
127.446,570
127.888,581
128.33,625
128.772,535
129.214,542
129.656,541
130.0984,548
130.5404,574
130.982,555
131.424,552
131.866,552
132.308,536
132.75,537
133.192,530
133.634,522
134.076,515
134.518,532
134.96,566
134.977,571