File: data/xrd_icdd_PDF/00-071-0570 (PD3).csv
3,289
3.55,302
4.1,221
4.65,235
5.2,199
5.75,230
6.3,181
6.85,208
7.4,226
7.95,159
8.5,183
9.05,180
9.6,174
10.15,157
10.7,190
11.25,153
11.8,187
12.35,155
12.9,176
13.45,164
14,210
14.55,166
15.1,179
15.65,164
16.2,145
16.75,148
17.3,196
17.85,255
18.4,139
18.95,151
19.5,143
20.05,152
20.6,183
21.15,156
21.7,318
22.25,175
22.8,184
23.35,201
23.9,158
24.45,152
25,166
25.55,138
26.1,157
26.65,172
27.2,207
27.75,217
28.3,3940
28.85,160
29.4,170
29.95,1128
30.5,2173
31.05,181
31.6,170
32.15,166
32.7,158
33.25,144
33.8,170
34.35,149
34.9,152
35.45,281
36,340
36.55,124
37.1,136
37.65,125
38.2,162
38.75,183
39.3,647
39.85,455
40.4,153
40.95,235
41.5,1035
42.05,186
42.6,152
43.15,387
43.7,206
44.25,1103
44.8,172
45.35,166
45.9,939
46.45,145
47,140
47.55,1462
48.1,140
48.65,132
49.2,145
49.75,285
50.3,148
50.85,142
51.4,203
51.95,246
52.5,460
53.05,379
53.6,352
54.15,1922
54.7,187
55.25,244
55.8,150
56.35,258
56.9,311
57.45,123
58,373
58.55,1863
59.1,179
59.65,372
60.2,1404
60.75,391
61.3,350
61.85,135
62.4,254
62.95,369
63.5,218
64.05,471
64.6,419
65.15,166
65.7,300
66.25,168
66.8,161
67.35,148
67.9,349
68.45,196
69,339
69.55,632
70.1,219
70.65,226
71.2,2143
71.75,220
72.3,421
72.85,598
73.4,269
73.95,484
74.5,195
75.05,200
75.6,716
76.15,494
76.7,917
77.25,156
77.8,290
78.35,173
78.9,364
79.45,187
80,168
80.55,596
81.1,543
81.65,580
82.2,436
82.75,181
83.3,273
83.85,204
84.4,496
84.95,244
85.5,286
86.05,490
86.6,257
87.15,632
87.7,182
88.25,607
88.8,608
89.35,205
89.9,218
90.45,327
91,783
91.55,181
92.1,150
92.65,226
93.2,406
93.75,195
94.3,282
94.85,315
95.4,689
95.95,239
96.5,236
97.05,576
97.6,874
98.15,371
98.7,309
99.25,196
99.8,291
100.35,239
100.9,474
101.45,297
102,289
102.55,546
103.1,193
103.65,271
104.2,397
104.75,237
105.3,583
105.85,683
106.4,565
106.95,268
107.5,344
108.05,233
108.6,243
109.15,194
109.7,190
110.25,194
110.8,479
111.35,532
111.9,340
112.45,640
113,324
113.55,693
114.1,870
114.65,258
115.2,229
115.75,575
116.3,308
116.85,370
117.4,229
117.95,194
118.5,287
119.05,404
119.6,262
120.15,449
120.7,278
121.25,255
121.8,236
122.35,286
122.9,223
123.45,385
124,298
124.55,234
125.1,376
125.65,604
126.2,519
126.75,380
127.3,393
127.85,266
128.4,232
128.95,243
129.5,273
130.05,270
130.6,315
131.15,405
131.7,600
132.25,501
132.8,296
133.35,337
133.9,322
134.45,246
135,233
135.55,234
136.1,266
136.65,266
137.2,242
137.75,222
138.3,205
138.85,223
139.4,291
139.95,458
140.5,763
141.05,691
141.6,298
142.15,295
142.7,388
143.25,396
143.8,362
144.35,307
144.9,392
145.45,356
146,391
146.55,344
147.1,271
147.65,244
148.2,219
148.75,280
149.3,449
149.85,593
150.4,532
150.95,369
151.5,282
152.05,258
152.6,266
153.15,296
153.7,279
154.25,285
154.8,301
155.35,368
155.9,427
156.45,477
157,537
157.55,493
158.1,400
158.65,320
159.2,287
159.75,281
160.3,298
160.85,313
161.4,301
161.95,316
162.5,345
163.05,314
163.6,305
164.15,348
164.7,403
165.25,471
165.8,490
166.35,524
166.9,565
167.45,617
167.75,628