File: data/xrd_icdd_PDF/00-063-0698 (PD3).csv
3,546
3.46,476
3.92,393
4.38,350
4.84,302
5.3,243
5.76,220
6.22,222
6.68,204
7.14,171
7.6,153
8.06,181
8.52,162
8.98,122
9.44,121
9.9,107
10.36,125
10.82,135
11.28,85
11.74,98
12.2,81
12.66,105
13.12,97
13.58,119
14.04,77
14.5,96
14.96,93
15.42,106
15.88,103
16.34,119
16.8,112
17.26,128
17.72,124
18.18,136
18.64,200
19.1,143
19.56,106
20.02,105
20.48,105
20.94,110
21.4,886
21.86,105
22.32,101
22.78,90
23.24,107
23.7,114
24.16,99
24.62,84
25.08,87
25.54,98
26,69
26.46,55
26.92,76
27.38,106
27.84,78
28.3,93
28.76,84
29.22,100
29.68,114
30.14,3665
30.6,3415
31.06,136
31.52,103
31.98,161
32.44,69
32.9,79
33.36,75
33.82,85
34.28,71
34.74,53
35.2,42
35.66,227
36.12,87
36.58,64
37.04,44
37.5,70
37.96,64
38.42,51
38.88,102
39.34,66
39.8,42
40.26,61
40.72,81
41.18,47
41.64,67
42.1,61
42.56,57
43.02,92
43.48,3140
43.94,80
44.4,82
44.86,329
45.32,61
45.78,54
46.24,55
46.7,53
47.16,75
47.62,120
48.08,75
48.54,146
49,335
49.46,70
49.92,338
50.38,85
50.84,48
51.3,56
51.76,62
52.22,56
52.68,72
53.14,70
53.6,1353
54.06,1294
54.52,293
54.98,74
55.44,41
55.9,70
56.36,57
56.82,67
57.28,77
57.74,88
58.2,43
58.66,51
59.12,37
59.58,167
60.04,64
60.5,50
60.96,44
61.42,44
61.88,49
62.34,55
62.8,260
63.26,991
63.72,351
64.18,75
64.64,55
65.1,40
65.56,42
66.02,55
66.48,88
66.94,118
67.4,103
67.86,90
68.32,49
68.78,81
69.24,46
69.7,39
70.16,63
70.62,59
71.08,70
71.54,474
72,942
72.46,120
72.92,101
73.38,55
73.84,50
74.3,52
74.76,38
75.22,60
75.68,71
76.14,67
76.6,87
77.06,61
77.52,64
77.98,36
78.44,30
78.9,39
79.36,208
79.82,49
80.28,162
80.74,133
81.2,71
81.66,46
82.12,40
82.58,68
83.04,99
83.5,66
83.96,149
84.42,68
84.88,42
85.34,49
85.8,51
86.26,50
86.72,53
87.18,214
87.64,470
88.1,456
88.56,466
89.02,71
89.48,53
89.94,89
90.4,69
90.86,77
91.32,59
91.78,65
92.24,80
92.7,51
93.16,70
93.62,54
94.08,52
94.54,44
95,46
95.46,130
95.92,98
96.38,55
96.84,67
97.3,53
97.76,54
98.22,46
98.68,42
99.14,90
99.6,103
100.06,111
100.52,79
100.98,49
101.44,48
101.9,48
102.36,73
102.82,86
103.28,169
103.74,391
104.2,258
104.66,125
105.12,62
105.58,45
106.04,47
106.5,132
106.96,71
107.42,81
107.88,106
108.34,95
108.8,61
109.26,62
109.72,52
110.18,56
110.64,66
111.1,93
111.56,140
112.02,237
112.48,188
112.94,82
113.4,64
113.86,54
114.32,65
114.78,81
115.24,103
115.7,112
116.16,89
116.62,88
117.08,69
117.54,79
118,71
118.46,57
118.92,52
119.38,79
119.84,174
120.3,126
120.76,74
121.22,137
121.68,233
122.14,181
122.6,106
123.06,56
123.52,63
123.98,71
124.44,59
124.9,63
125.36,63
125.82,76
126.28,63
126.74,68
127.2,61
127.66,66
128.12,66
128.58,61
129.04,159
129.5,113
129.96,84
130.42,133
130.88,142
131.34,145
131.8,154
132.26,140
132.72,77
133.18,71
133.64,102
134.1,90
134.56,69
135.02,135
135.48,103
135.94,124
136.4,75
136.86,119
137.32,91
137.78,61
138.24,80
138.7,74
139.16,147
139.62,106
139.98,135