File: data/xrd_icdd_PDF/00-059-0842 (PD3).csv
5,137
5.46,132
5.92,161
6.38,119
6.84,137
7.3,110
7.76,146
8.22,142
8.68,169
9.14,139
9.6,112
10.06,149
10.52,139
10.98,130
11.44,121
11.9,156
12.36,132
12.82,110
13.28,154
13.74,159
14.2,185
14.66,276
15.12,190
15.58,174
16.04,121
16.5,164
16.96,154
17.42,166
17.88,185
18.34,190
18.8,193
19.26,231
19.72,135
20.18,207
20.64,303
21.1,146
21.56,149
22.02,142
22.48,130
22.94,144
23.4,108
23.86,79
24.32,92
24.78,100
25.24,110
25.7,156
26.16,146
26.62,454
27.08,128
27.54,106
28,177
28.46,1325
28.92,313
29.38,610
29.84,1122
30.3,119
30.76,139
31.22,83
31.68,123
32.14,2333
32.6,219
33.06,112
33.52,98
33.98,130
34.44,259
34.9,117
35.36,90
35.82,269
36.28,100
36.74,123
37.2,112
37.66,98
38.12,98
38.58,475
39.04,121
39.5,231
39.96,121
40.42,137
40.88,92
41.34,96
41.8,784
42.26,286
42.72,605
43.18,350
43.64,86
44.1,125
44.56,172
45.02,408
45.48,286
45.94,225
46.4,94
46.86,72
47.32,240
47.78,276
48.24,234
48.7,110
49.16,149
49.62,520
50.08,404
50.54,83
51,59
51.46,56
51.92,328
52.38,125
52.84,462
53.3,237
53.76,90
54.22,128
54.68,462
55.14,296
55.6,96
56.06,282
56.52,67
56.98,269
57.44,681
57.9,234
58.36,335
58.82,86
59.28,256
59.74,154
60.2,250
60.66,335
61.12,213
61.58,396
62.04,404
62.5,110
62.96,62
63.42,146
63.88,88
64.34,279
64.8,79
65.26,67
65.72,132
66.18,154
66.64,86
67.1,86
67.56,149
68.02,269
68.48,339
68.94,96
69.4,135
69.86,276
70.32,357
70.78,132
71.24,169
71.7,225
72.16,210
72.62,467
73.08,210
73.54,100
74,471
74.46,154
74.92,164
75.38,177
75.84,190
76.3,106
76.76,144
77.22,196
77.68,204
78.14,331
78.6,246
79.06,156
79.52,225
79.98,172
80.44,199
80.9,125
81.36,177
81.82,154
82.28,132
82.74,172
83.2,299
83.66,357
84.12,253
84.58,169
85.04,199
85.5,102
85.96,219
86.42,164
86.88,100
87.34,100
87.8,216
88.26,86
88.72,119
89.18,90
89.64,174
90.1,98
90.56,193
91.02,119
91.48,202
91.94,66
92.4,161
92.86,161
93.32,306
93.78,225
94.24,130
94.7,177
95.16,132
95.62,240
96.08,98
96.54,144
97,161
97.46,172
97.92,130
98.38,119
98.84,121
99.3,213
99.76,149
100.22,172
100.68,100
101.14,130
101.6,149
102.06,142
102.52,137
102.98,121
103.44,114
103.9,108
104.36,139
104.82,135
105.28,128
105.74,100
106.2,79
106.66,146
107.12,119
107.58,146
108.04,83
108.5,86
108.96,108
109.42,72
109.88,85
110.34,74
110.8,166
111.26,154
111.72,98
112.18,142
112.64,79
113.1,139
113.56,159
114.02,135
114.48,130
114.94,149
115.4,76
115.86,139
116.32,159
116.78,94
117.24,164
117.7,119
118.16,156
118.62,149
119.08,85
119.54,83
120,123
120.46,146
120.92,202
121.38,132
121.84,225
122.3,193
122.76,177
123.22,135
123.68,146
124.14,119
124.6,166
125.06,130
125.52,196
125.98,210
126.44,137
126.9,149
127.36,188
127.82,130
128.28,117
128.74,114
129.2,139
129.66,161
130.12,166
130.58,83
131.04,123
131.5,139
131.96,222
132.42,243
132.88,164
133.34,154
133.8,123
134.26,100
134.72,156
135.18,156
135.64,185
136.1,108
136.56,130
137.02,144
137.48,114
137.94,172
138.4,159
138.86,159
139.32,210
139.78,154
139.88,137