File: data/xrd_icdd_PDF/00-060-0191 (PD3).csv
8.81,19131
9.115,18513
9.42,18062
9.725,17744
10.03,17239
10.335,16908
10.64,16568
10.945,16366
11.25,15763
11.555,15557
11.86,15387
12.165,14562
12.47,14333
12.775,14086
13.08,14046
13.385,13476
13.69,13158
13.995,12912
14.3,12734
14.605,12438
14.91,12055
15.215,11920
15.52,11933
15.825,11669
16.13,11526
16.435,11332
16.74,11082
17.045,10984
17.35,10860
17.655,10831
17.96,10879
18.265,10568
18.57,10685
18.875,10379
19.18,10286
19.485,10307
19.79,10028
20.095,10188
20.4,10966
20.705,20073
21.01,10919
21.315,9606
21.62,9112
21.925,8880
22.23,8958
22.535,8613
22.84,8481
23.145,8222
23.45,8257
23.755,8357
24.06,10077
24.365,8185
24.67,7731
24.975,8087
25.28,7163
25.585,7156
25.89,6895
26.195,6930
26.5,6706
26.805,6660
27.11,6512
27.415,6600
27.72,7849
28.025,16683
28.33,6459
28.635,6100
28.94,6009
29.245,6017
29.55,6476
29.855,7920
30.16,5685
30.465,5650
30.77,5589
31.075,5768
31.38,5493
31.685,5436
31.99,5996
32.295,11110
32.6,45738
32.905,22570
33.21,14968
33.515,6436
33.82,5177
34.125,4950
34.43,5366
34.735,7648
35.04,10369
35.345,25539
35.65,10396
35.955,55385
36.26,9675
36.565,5873
36.87,5565
37.175,7157
37.48,20434
37.785,19221
38.09,6984
38.395,5508
38.7,4952
39.005,4905
39.31,5326
39.615,13161
39.92,8466
40.225,5360
40.53,5193
40.835,7002
41.14,36706
41.445,9226
41.75,6908
42.055,7043
42.36,16105
42.665,7642
42.97,5177
43.275,10620
43.58,5211
43.885,7115
44.19,29441
44.495,15959
44.8,4993
45.105,3936
45.41,3617
45.715,3588
46.02,3519
46.325,3700
46.63,6262
46.935,4116
47.24,3414
47.545,3287
47.85,3219
48.155,3191
48.46,3212
48.765,3241
49.07,3674
49.375,3674
49.68,3782
49.985,3380
50.29,3122
50.595,3080
50.9,3445
51.205,3143
51.51,3245
51.815,3823
52.12,3886
52.425,4005
52.73,9551
53.035,4359
53.34,4556
53.645,8793
53.95,4790
54.255,3368
54.56,3139
54.865,3155
55.17,3502
55.475,11036
55.78,3609
56.085,3173
56.39,3203
56.695,4531
57,4096
57.305,4084
57.61,4429
57.915,6143
58.22,4436
58.525,10836
58.83,10220
59.135,5934
59.44,3430
59.745,3335
60.05,2983
60.355,2976
60.66,2984
60.965,2950
61.27,2873
61.575,2942
61.88,3392
62.185,2878
62.49,2966
62.795,3161
63.1,3736
63.405,13973
63.71,3819
64.015,3470
64.32,4807
64.625,4453
64.93,4453
65.235,6385
65.54,8205
65.845,39406
66.15,6415
66.455,4105
66.76,4216
67.065,3439
67.37,3470
67.675,3208
67.98,3229
68.285,4375
68.59,3996
68.895,7492
69.2,7137
69.505,3876
69.81,3433
70.115,3483
70.42,5450
70.725,4310
71.03,3747
71.335,5840
71.64,3547
71.945,3519
72.25,3121
72.555,3300
72.86,3656
73.165,9171
73.47,12690
73.775,4086
74.08,4034
74.385,9806
74.69,3777
74.995,3801
75.3,4181
75.605,8437
75.91,4897
76.215,7641
76.52,4094
76.825,3395
77.13,3906
77.435,3887
77.74,3692
78.045,4318
78.35,5428
78.655,8935
78.96,4040
79.265,3574
79.57,3639
79.875,4345
80.18,11145
80.485,13086
80.79,4964
81.095,3857
81.4,3980
81.705,5286
82.01,3492
82.315,4938
82.62,4162
82.925,3591
83.23,3399
83.535,6353
83.84,3804
84.145,3153
84.45,2997
84.755,2899
85.06,2956
85.365,2941
85.67,3110
85.975,3306
86.28,3117
86.585,3098
86.89,3168
87.195,3649
87.5,4468
87.805,5443
88.11,4820
88.415,3810
88.72,4452
89.025,4408
89.33,4278
89.635,3391
89.94,3132
90.245,3122
90.55,3305
90.855,3259
91.16,3484
91.465,5278
91.77,4266
92.075,7224
92.38,4040
92.685,3586
92.99,3879
93.295,3386
93.6,3574
93.905,4545
94.21,6507
94.515,3745
94.82,3558
95.125,4481
95.43,5015
95.735,3534
96.04,3561
96.345,4906
96.65,3849
96.955,5424
97.26,6351
97.565,5479
97.87,7533
98.175,5015
98.48,4786
98.785,3692
98.81,3688