File: data/xrd_icdd_PDF/00-059-0216 (PD3).csv
6,11549
6.4,11406
6.8,11402
7.2,11251
7.6,11247
8,11091
8.4,11089
8.8,11056
9.2,11051
9.6,10979
10,10971
10.4,10954
10.8,10939
11.2,10845
11.6,10840
12,10857
12.4,10815
12.8,10761
13.2,10829
13.6,10804
14,10777
14.4,10724
14.8,10723
15.2,10758
15.6,10778
16,10768
16.4,10768
16.8,10785
17.2,10754
17.6,10889
18,10715
18.4,10777
18.8,10781
19.2,10705
19.6,10799
20,10751
20.4,10757
20.8,10718
21.2,10816
21.6,10678
22,10703
22.4,10650
22.8,10714
23.2,10694
23.6,10714
24,11163
24.4,10598
24.8,11747
25.2,10620
25.6,10611
26,10678
26.4,14042
26.8,10742
27.2,10695
27.6,10792
28,10768
28.4,10702
28.8,10648
29.2,10693
29.6,11012
30,13579
30.4,10631
30.8,10626
31.2,10611
31.6,10644
32,10611
32.4,10630
32.8,10850
33.2,26337
33.6,11105
34,14963
34.4,12454
34.8,10667
35.2,10604
35.6,11990
36,10663
36.4,10644
36.8,10582
37.2,10700
37.6,14611
38,10838
38.4,13802
38.8,10641
39.2,10627
39.6,10598
40,10592
40.4,10617
40.8,10586
41.2,10886
41.6,10860
42,16458
42.4,10705
42.8,10568
43.2,10720
43.6,10706
44,11214
44.4,11154
44.8,10874
45.2,10693
45.6,10657
46,10949
46.4,11020
46.8,10634
47.2,10712
47.6,10721
48,10657
48.4,10687
48.8,10567
49.2,10665
49.6,10653
50,10707
50.4,10927
50.8,12038
51.2,11612
51.6,11990
52,10728
52.4,10772
52.8,10985
53.2,10632
53.6,10699
54,10751
54.4,11564
54.8,11085
55.2,10606
55.6,10794
56,10825
56.4,12714
56.8,12867
57.2,10814
57.6,11058
58,11115
58.4,10746
58.8,10773
59.2,11122
59.6,11014
60,10843
60.4,10787
60.8,10795
61.2,10637
61.6,10693
62,11500
62.4,11179
62.8,11604
63.2,11020
63.6,10781
64,10724
64.4,10541
64.8,11101
65.2,12646
65.6,10672
66,10777
66.4,10728
66.8,10695
67.2,10666
67.6,10709
68,10981
68.4,10828
68.8,10613
69.2,10607
69.6,11934
70,11543
70.4,10753
70.8,10706
71.2,10802
71.6,10600
72,10735
72.4,11196
72.8,11187
73.2,11110
73.6,10981
74,10810
74.4,11752
74.8,12549
75.2,11436
75.6,10845
76,10603
76.4,10646
76.8,10660
77.2,10942
77.6,11158
78,10873
78.4,10879
78.8,10680
79.2,10640
79.6,10749
80,10701
80.4,10756
80.8,10640
81.2,10617
81.6,11166
82,12141
82.4,10734
82.8,10715
83.2,10640
83.6,10648
84,10662
84.4,10824
84.8,10819
85.2,10704
85.6,10789
86,10762
86.4,10979
86.8,10995
87.2,10909
87.6,10671
88,10687
88.4,10634
88.8,10611
89.2,10654
89.6,11566
90,10730
90.4,10659
90.8,10641
91.2,10838
91.6,10928
92,10647
92.4,10708
92.8,10673
93.2,10785
93.6,10651
94,10575
94.4,10755
94.8,10800
95.2,10671
95.6,10800
96,10692
96.4,10810
96.8,10960
97.2,10807
97.6,10988
98,11045
98.4,11289
98.8,10829
99.2,10623
99.6,10586
100,10659
100.4,10621
100.8,10651
101.2,10759
101.6,10803
102,10649
102.4,10686
102.8,10915
103.2,11171
103.6,10917
104,10699
104.4,10652
104.8,10653
105.2,10852
105.6,10745
106,10724
106.4,10682
106.8,10775
107.2,10846
107.6,11110
108,11179
108.4,11044
108.8,10932
109.2,10738
109.6,10876
110,10833
110.4,10957
110.8,10907
111.2,11115
111.6,10886
112,10716
112.4,10663
112.8,11179
113.2,10958
113.6,10746
114,11107
114.4,11145
114.8,11572
115.2,11287
115.6,10931
116,10828
116.4,10684
116.8,10762
117.2,10762
117.6,10715
118,10705
118.4,10757
118.8,10808
119.2,10732
119.6,10667
120,10997
120.4,10715
120.8,10652
121.2,10834
121.6,10988
122,10771
122.4,10611
122.76,10541