File: data/xrd_icdd_PDF/00-058-0850 (PD3).csv
9.2808,362.943
9.8488,386.941
10.4168,491.857
10.9848,410.642
11.5528,430.685
12.1208,470.916
12.6888,520.926
13.2568,742.251
13.8248,697.817
14.3928,669.955
14.9608,609.797
15.5288,642.3138
16.0968,669.956
16.6648,731.544
17.2328,781.35
17.8008,918.573
18.3688,928.681
18.9368,876.018
19.5048,817.665
20.0728,871.292
20.6408,899.0267
21.2088,922.005
21.7768,839.466
22.3448,826.898
22.9128,895.892
23.4808,929.747
24.0488,6518.37
24.6168,1001.4
25.1848,813.243
25.7528,887.676
26.3208,756.645
26.8888,780.506
27.4568,904.568
28.0248,951.544
28.5928,1101.34
29.1608,1184.24
29.7288,1257.31
30.2968,1341.75
30.8648,1770.22
31.4328,21910.3
32.0008,1425.63
32.5688,18941.2
33.1368,1379.83
33.7048,1151.28
34.2728,963.425
34.8408,961.003
35.4088,830.453
35.9768,865.175
36.5448,811.284
37.1128,805.0709
37.6808,748.205
38.2488,667.701
38.8168,705.117
39.3848,741.959
39.9528,853.394
40.5208,926.733
41.0888,962.385
41.6568,968.0109
42.2248,1184.36
42.7928,7407.92
43.3608,1254.41
43.9288,1581.25
44.4968,996.698
45.0648,1223.01
45.6328,1027
46.2008,1112.5
46.7688,13218
47.3368,1196.31
47.9048,959.581
48.4728,991.03
49.0408,849.746
49.6088,819.86
50.1768,894.17
50.7448,901.395
51.3128,781.826
51.8808,871.013
52.4488,979.887
53.0168,1073.28
53.5848,1109.66
54.1528,1268.81
54.7208,1663.06
55.2888,1381.82
55.8568,1520.41
56.4248,1870.92
56.9928,1511.33
57.5608,4559.05
58.1288,1093.33
58.6968,1198.09
59.2648,999.967
59.8328,891.004
60.4008,857.996
60.9688,817.401
61.5368,817.896
62.1048,992.675
62.6728,929.1516
63.2408,918.184
63.8088,1059.58
64.3768,916.654
64.9448,1237.76
65.5128,3496.62
66.0808,941.214
66.6488,898.9917
67.2168,1037.1
67.7848,997.286
68.3528,4950.27
68.9208,1135.33
69.4888,999.302
70.0568,808.742
70.6248,795.088
71.1928,754.15
71.7608,893.82
72.3288,824.403
72.8968,790.919
73.4648,914.226
74.0328,977.173
74.6008,853.768
75.1688,922.136
75.7368,1112.95
76.3048,1389.63
76.8728,1128.95
77.4408,1230.13
78.0088,3130.08
78.5768,1061.09
79.1448,973.506
79.7128,899.277
80.2808,876.458
80.8488,925.628
81.4168,868.625
81.9848,924.188
82.5528,768.586
83.1208,956.436
83.6888,993.451
84.2568,2296.99
84.8248,2304.66
85.3928,896.126
85.9608,971.433
86.5288,847.573
87.0968,787.572
87.6648,801.731
88.2328,937.237
88.8008,1140.37
89.3688,763.0064
89.9368,863.33
90.5048,846.405
91.0728,907.8717
91.6408,815.644
92.2088,747.939
92.7768,863.834
93.3448,2318.14
93.9128,914.906
94.4808,1179.49
95.0488,1046.39
95.6168,875.1646
96.1848,1590.2
96.7528,847.993
97.3208,692.757
97.8888,783.557
98.4568,851.126
99.0248,754.699
99.5928,784.397
100.1608,858.617
100.7288,777.238
101.2968,799.817
101.8648,813.4959
102.4328,976.738
103.0008,738.306
103.5688,725.504
104.1368,867.986
104.7048,921.612
105.2728,1683.53
105.8408,737.618
106.4088,780.861
106.9768,936.263
107.5448,1102.79
108.1128,815.438
108.6808,752.0869
109.2488,828.769
109.8168,758.961
110.3848,939.831
110.9528,646.593
111.5208,739.074
112.0888,925.754
112.6568,945.981
113.2248,973.632
113.7928,858.718
114.3608,971.613
114.9288,1043.91
115.4968,774.8092
116.0648,668.261
116.6328,669.413
117.2008,698.447
117.7688,830.042
118.3368,719.573
118.9048,672.66
119.4728,761.729
120.0408,629.603
120.6088,777.2094
121.1768,734.236
121.7448,884.115
122.3128,1106.57
122.8808,735.675
123.4488,599.722
124.0168,802.3095
124.5848,746.03
125.1528,1015.45
125.7208,756.013
126.2888,741.916
126.8568,733.843
127.4248,751.454
127.9928,1229.5
128.5608,894.432
129.1288,770.735
129.6968,718.019
130.2648,618.51
130.8328,619.461
131.4008,668.074
131.9688,731.213
132.5368,680.225
133.1048,622.121
133.6728,832.087
134.2408,960.327
134.8088,732.736
135.3768,781.945
135.9448,648.972
136.5128,711.897
137.0808,562.863
137.6488,797.539
138.2168,711.522
138.7848,680.393
139.3528,890.271
139.9208,587.943
140.4888,583.309
141.0568,933.482
141.6248,719.038
142.1928,639.433
142.7608,670.918
143.3288,658.914
143.8968,646.633
144.4648,720.161
145.0328,656.913
145.6008,737.877
146.1688,627.986
146.7368,687.165
147.3048,651.329
147.8728,940.66
148.4408,763.091
149.0088,726.81
149.5768,726.026
150.1448,659.588
150.7128,753.5176
151.2808,637.428
151.8488,685.4875
152.4168,605.201
152.9848,648.415
153.5528,698.203
154.1208,904.3522
154.6888,706.964
155.2568,674.974
155.8248,748.623
156.3928,747.282
156.9608,704.526
157.5288,656.728
158.0968,1226.82
158.6648,1037.74
159.2328,642.226
159.8008,617.306
160.3688,591.239
160.9368,654.974
161.5048,684.436
162.0728,693.75
162.6408,717.613
163.2088,790.2
163.7768,675.995
164.3448,759.185
164.9128,729.318
165.4808,675.106
166.0488,549.632
166.6168,584.929
167.1848,764.116
167.7528,619.872
168.3208,608.378
168.8888,676.392
169.4568,782.611
170.0248,754.0155
170.5928,666.549
171.1608,576.7176
171.7288,701.482
172.2968,722.77
172.8648,774.378
173.4328,697.119
174.0008,698.524
174.5688,616.632
175.1368,652.669
175.7048,699.795
176.2728,738.534
176.8408,678.03
177.4088,680.012
177.9768,661.224
178.5448,624.549
178.9088,616.985