File: data/xrd_icdd_PDF/00-049-0499 (PD3).csv
10,2290
10.28,2126
10.56,2138
10.84,2080
11.12,2018
11.4,1895
11.68,1864
11.96,2003
12.24,3948
12.52,1747
12.8,1682
13.08,3216
13.36,1513
13.64,1289
13.92,1263
14.2,1185
14.48,1062
14.76,995
15.04,1234
15.32,845
15.6,4059
15.88,743
16.16,801
16.44,840
16.72,795
17,819
17.28,733
17.56,592
17.84,620
18.12,611
18.4,628
18.68,1427
18.96,1834
19.24,572
19.52,530
19.8,549
20.08,808
20.36,1293
20.64,4625
20.92,1082
21.2,1252
21.48,882
21.76,623
22.04,602
22.32,1097
22.6,859
22.88,2050
23.16,2202
23.44,509
23.72,477
24,485
24.28,515
24.56,764
24.84,1295
25.12,497
25.4,510
25.68,450
25.96,1431
26.24,464
26.52,1231
26.8,452
27.08,409
27.36,406
27.64,475
27.92,399
28.2,699
28.48,620
28.76,5051
29.04,9416
29.32,1137
29.6,3116
29.88,2345
30.16,6531
30.44,34936
30.72,4772
31,815
31.28,5762
31.56,2558
31.84,531
32.12,1684
32.4,938
32.68,473
32.96,357
33.24,566
33.52,3264
33.8,1634
34.08,3777
34.36,1009
34.64,2587
34.92,3618
35.2,1727
35.48,651
35.76,1747
36.04,5098
36.32,1267
36.6,549
36.88,350
37.16,538
37.44,3010
37.72,517
38,380
38.28,1764
38.56,1499
38.84,398
39.12,505
39.4,304
39.68,304
39.96,308
40.24,1001
40.52,843
40.8,459
41.08,635
41.36,832
41.64,607
41.92,731
42.2,1753
42.48,1189
42.76,2713
43.04,999
43.32,1107
43.6,1037
43.88,1340
44.16,2258
44.44,1189
44.72,570
45,553
45.28,615
45.56,883
45.84,2186
46.12,733
46.4,711
46.68,1146
46.96,2519
47.24,727
47.52,1160
47.8,518
48.08,2997
48.36,925
48.64,1477
48.92,386
49.2,851
49.48,575
49.76,679
50.04,623
50.32,2634
50.6,1095
50.88,959
51.16,380
51.44,913
51.72,1499
52,820
52.28,624
52.56,846
52.84,847
53.12,1228
53.4,1642
53.68,873
53.96,1501
54.24,1145
54.52,813
54.8,705
55.08,662
55.36,474
55.64,358
55.92,917
56.2,693
56.48,415
56.76,793
57.04,658
57.32,567
57.6,2402
57.88,877
58.16,617
58.44,1927
58.72,2223
59,1158
59.28,1511
59.56,3546
59.84,1361
60.12,771
60.4,797
60.68,723
60.96,1933
61.24,2289
61.52,1048
61.8,488
62.08,460
62.36,1329
62.64,1841
62.92,1341
63.2,1341
63.48,1340
63.76,2777
64.04,816
64.32,573
64.6,798
64.88,2252
65.16,1924
65.44,989
65.72,1302
66,1131
66.28,1133
66.56,1123
66.84,678
67.12,667
67.4,523
67.68,819
67.96,467
68.24,739
68.52,1061
68.8,1428
69.08,1227
69.36,535
69.64,412
69.92,453
70.2,636
70.48,861
70.76,467
71.04,606
71.32,576
71.6,715
71.88,1624
72.16,933
72.44,744
72.72,1164
73,1184
73.28,809
73.56,410
73.84,577
74.12,692
74.4,608
74.68,457
74.96,434
75.24,477
75.52,428
75.8,469
76.08,575
76.36,477
76.64,313
76.92,395
77.2,809
77.48,554
77.76,654
78.04,493
78.32,324
78.6,256
78.88,352
79.16,376
79.44,431
79.72,714
80,510
80.28,443
80.56,414
80.84,289
81.12,551
81.4,522
81.68,360
81.96,351
82.24,413
82.52,367
82.8,323
83.08,237
83.36,305
83.64,358
83.92,482
84.2,465
84.48,370
84.76,341
85.04,378
85.32,527
85.6,453
85.88,420
86.16,842
86.44,593
86.72,430
87,635
87.28,724
87.56,597
87.84,356
88.12,389
88.4,384
88.68,497
88.96,527
89.24,716
89.52,664
89.8,438
90,415