File: data/xrd_icdd_PDF/00-065-0380 (PD3).csv
4.005,2342
4.395,2315
4.785,2380
5.175,2366
5.565,2376
5.955,2390
6.345,2363
6.735,2315
7.125,2206
7.515,2244
7.905,2228
8.295,2140
8.685,2044
9.075,2060
9.465,1931
9.855,1963
10.245,1971
10.635,1869
11.025,1831
11.415,1771
11.805,1757
12.195,1776
12.585,1733
12.975,1732
13.365,1707
13.755,1766
14.145,1787
14.535,1776
14.925,1798
15.315,1710
15.705,1700
16.095,1672
16.485,1754
16.875,1628
17.265,1556
17.655,1547
18.045,1492
18.435,1489
18.825,1477
19.215,1472
19.605,1405
19.995,1498
20.385,1439
20.775,1446
21.165,1605
21.555,2757
21.945,1424
22.335,2184
22.725,1242
23.115,1174
23.505,1162
23.895,1107
24.285,1079
24.675,1010
25.065,964
25.455,946
25.845,976
26.235,929
26.625,897
27.015,870
27.405,939
27.795,937
28.185,903
28.575,881
28.965,832
29.355,802
29.745,799
30.135,784
30.525,1353
30.915,1581
31.305,9514
31.695,1332
32.085,802
32.475,756
32.865,731
33.255,701
33.645,762
34.035,722
34.425,690
34.815,713
35.205,873
35.595,2495
35.985,802
36.375,882
36.765,948
37.155,3620
37.545,2916
37.935,943
38.325,753
38.715,754
39.105,689
39.495,705
39.885,712
40.275,745
40.665,731
41.055,805
41.445,1052
41.835,3350
42.225,6231
42.615,8700
43.005,1308
43.395,1110
43.785,6094
44.175,10846
44.565,1195
44.955,817
45.345,859
45.735,5498
46.125,1153
46.515,620
46.905,669
47.295,681
47.685,689
48.075,3570
48.465,665
48.855,668
49.245,683
49.635,700
50.025,3351
50.415,597
50.805,527
51.195,606
51.585,456
51.975,404
52.365,402
52.755,417
53.145,415
53.535,388
53.925,362
54.315,398
54.705,431
55.095,382
55.485,381
55.875,360
56.265,410
56.655,391
57.045,403
57.435,370
57.825,730
58.215,388
58.605,402
58.995,666
59.385,1968
59.775,601
60.165,729
60.555,6260
60.945,1104
61.335,544
61.725,462
62.115,578
62.505,688
62.895,2001
63.285,807
63.675,970
64.065,3990
64.455,842
64.845,984
65.235,1176
65.625,1412
66.015,477
66.405,459
66.795,425
67.185,435
67.575,362
67.965,402
68.355,552
68.745,415
69.135,510
69.525,1381
69.915,2293
70.305,599
70.695,517
71.085,498
71.475,624
71.865,383
72.255,506
72.645,559
73.035,2434
73.425,766
73.815,420
74.205,421
74.595,438
74.985,826
75.375,2269
75.765,1404
76.155,456
76.545,433
76.935,511
77.325,462
77.715,689
78.105,586
78.495,519
78.885,503
79.275,906
79.665,4087
80.055,638
80.445,418
80.835,405
81.225,443
81.615,422
82.005,425
82.395,1388
82.785,1102
83.175,2812
83.565,3916
83.955,1092
84.345,547
84.735,543
85.125,411
85.515,386
85.905,473
86.295,1142
86.685,744
87.075,440
87.465,368
87.855,452
88.245,370
88.635,350
89.025,428
89.415,381
89.805,318
90.195,338
90.585,380
90.975,361
91.365,504
91.755,526
92.145,432
92.535,747
92.925,1577
93.315,512
93.705,413
94.095,400
94.485,403
94.875,433
95.265,489
95.655,529
96.045,659
96.435,568
96.825,1404
97.215,3022
97.605,660
97.995,513
98.385,425
98.775,704
99.165,392
99.555,430
99.945,466
100.335,335
100.725,310
101.115,298
101.505,338
101.895,360
102.285,710
102.675,413
103.065,344
103.455,312
103.845,309
104.235,350
104.625,381
105.015,1199
105.405,762
105.795,400
106.185,367
106.575,454
106.965,347
107.355,331
107.745,359
108.135,508
108.525,953
108.915,696
109.305,1075
109.695,501
110.085,403
110.475,377
110.865,382
111.255,389
111.645,359
112.035,464
112.425,603
112.815,766
113.205,754
113.595,1104
113.985,675
114.375,556
114.765,947
115.155,631
115.545,794
115.935,489
116.325,484
116.715,621
117.105,1165
117.495,655
117.885,682
118.275,1129
118.665,512
119.055,399
119.445,441
119.835,751
120.225,535
120.615,321