File: data/xrd_icdd_PDF/00-054-0567 (PD3).csv
5.16616,4498.664
5.52616,4367.42
5.88616,4003.09
6.24616,3981.62
6.60616,3887.16
6.96616,3866.24
7.32616,3789.02
7.68616,3814.29
8.04616,3618.235
8.40616,3589.72
8.76616,3637.22
9.12616,3666.69
9.48616,3654.51
9.84616,3538.61
10.20616,3399.39
10.56616,3494.92
10.92616,3516.2
11.28616,3515.54
11.64616,3499.64
12.00616,3559.58
12.36616,3522.5
12.72616,3446.41
13.08616,3564.88
13.44616,3423.82
13.80616,3447.67
14.16616,3486.68
14.52616,3448.83
14.88616,3474.79
15.24616,3501.05
15.60616,3391.15
15.96616,3542.39
16.32616,3441.01
16.68616,3332.03
17.04616,3563.41
17.40616,3451.47
17.76616,3475.84
18.12616,3427.21
18.48616,3363.8
18.84616,3528.19
19.20616,3384.27
19.56616,3389.74
19.92616,3405.88
20.28616,3274.42
20.64616,3250.5
21.00616,3314.34
21.36616,3343.81
21.72616,3325.516
22.08616,3357.01
22.44616,3334.28
22.80616,3322.53
23.16616,3480.35
23.52616,3350.32
23.88616,3285.21
24.24616,3564.85
24.60616,3355.97
24.96616,4411.41
25.32616,3407.25
25.68616,3339.16
26.04616,3297.92
26.40616,3273.21
26.76616,3326.05
27.12616,3660.97
27.48616,3292.44
27.84616,3247.57
28.20616,3348.42
28.56616,3285.32
28.92616,3287.19
29.28616,3282.55
29.64616,3261.68
30.00616,3254.48
30.36616,3615.44
30.72616,3484.58
31.08616,3393.13
31.44616,3956.22
31.80616,4715.93
32.16616,3399.47
32.52616,4010.09
32.88616,3600.02
33.24616,3329.17
33.60616,3290.3
33.96616,3389.91
34.32616,5367.21
34.68616,3534.33
35.04616,7444.86
35.40616,16707.7
35.76616,3468.93
36.12616,3556.57
36.48616,3728.81
36.84616,3700.22
37.20616,4226.16
37.56616,3398.04
37.92616,4213.28
38.28616,3986.43
38.64616,9680.46
39.00616,4365.59
39.36616,4709.78
39.72616,3462.6
40.08616,3360.45
40.44616,3206.2
40.80616,4158.46
41.16616,7062.52
41.52616,3448.1
41.88616,3371.47
42.24616,3480.42
42.60616,3288.74
42.96616,4499.85
43.32616,6677.19
43.68616,3232.46
44.04616,3216.57
44.40616,3512.16
44.76616,3071.77
45.12616,3099.2
45.48616,3805.56
45.84616,3176.58
46.20616,3137.55
46.56616,5234.93
46.92616,5139.43
47.28616,3364.24
47.64616,3440.18
48.00616,3384.03
48.36616,3317.49
48.72616,3353.79
49.08616,3607.79
49.44616,4325.43
49.80616,9915.28
50.16616,3571.56
50.52616,3146.13
50.88616,3518.84
51.24616,3382.54
51.60616,3454.22
51.96616,3159.54
52.32616,3374.8
52.68616,3367.77
53.04616,3679.76
53.40616,3591.36
53.76616,4693.06
54.12616,3513.99
54.48616,3266.43
54.84616,3326.23
55.20616,3635.88
55.56616,3516.29
55.92616,3487.19
56.28616,5113.63
56.64616,3342
57.00616,3544.5
57.36616,3472.34
57.72616,5210.68
58.08616,3323.57
58.44616,3479.31
58.80616,3309.44
59.16616,3924.15
59.52616,3826.09
59.88616,3709.85
60.24616,3307.19
60.60616,3393.47
60.96616,3267.14
61.32616,3304.69
61.68616,3452.06
62.04616,3675.89
62.40616,3523.1
62.76616,5330.68
63.12616,3941.21
63.48616,4405.2
63.84616,3382.15
64.20616,3540.2
64.56616,3622
64.92616,6038.74
65.28616,3473.63
65.64616,3550.51
66.00616,3449.05
66.36616,3344.71
66.72616,5937.4
67.08616,3419.15
67.44616,3756.27
67.80616,3614.68
68.16616,3805.68
68.52616,5276.752
68.88616,3450.5
69.24616,3367.8
69.60616,3971.39
69.96616,3403.97
70.32616,3241.19
70.68616,3575.23
71.04616,4207.84
71.40616,3361.56
71.76616,3351.94
72.12616,3330.5
72.48616,3454.24
72.84616,3384.85
73.20616,3483.47
73.56616,3468.07
73.92616,3781.66
74.28616,4551.01
74.64616,3369.87
75.00616,5073.23
75.36616,3587.841
75.72616,3364
76.08616,4220.85
76.44616,3341.13
76.80616,3546.97
77.16616,3538.92
77.52616,4667.79
77.88616,3607.38
78.24616,3800.26
78.60616,3909.82
78.96616,3688.06
79.32616,3787.99
79.68616,4459.53
80.04616,3471.23
80.40616,3654.68
80.76616,3704.84
81.12616,4793.59
81.48616,4131.39
81.84616,3368.08
82.20616,3578.74
82.56616,4176.13
82.92616,3407.43
83.28616,3315.679
83.64616,4447.62
84.00616,3744.07
84.36616,3358.24
84.72616,3588.61
85.08616,3447.91
85.44616,3661.06
85.80616,3887.26
86.16616,4845.842
86.52616,3545.39
86.88616,3425.33
87.24616,3782.79
87.60616,3548.01
87.96616,3779.57
88.32616,3703.22
88.68616,3252.11
89.04616,3435.87
89.40616,3448.86
89.76616,3475.88
90.12616,3490.11
90.48616,3378.71
90.84616,3217.08
91.20616,3546.74
91.56616,3899.89
91.92616,4850.45
92.28616,3382.93
92.64616,3208.49
93.00616,3339.77
93.36616,3265.07
93.72616,3534.53
94.08616,3498.02
94.44616,3499.43
94.80616,3684
95.16616,3398.27
95.52616,4195.84
95.88616,3771.84
96.24616,3317.9
96.60616,3321.1
96.96616,3367.71
97.32616,3594.01
97.68616,3500.63
98.04616,3625.97
98.40616,3387.43
98.76616,3569.49
99.12616,3436.19
99.48616,3544.67
99.84616,3505.33
100.206,3896.62
100.566,3404.69
100.926,3273.57
101.286,3831.04
101.646,3491.04
102.006,3821.54
102.366,3537.02
102.726,3316.76
103.086,3933.28
103.446,3527.8
103.806,3524.53
104.166,3453.68
104.526,4054.482
104.886,3875.05
105.246,3891.09
105.606,3353.33
105.966,3382.13
106.326,3723.01
106.686,3508.37
107.046,3337.89
107.406,3365.56
107.766,3993.9
108.026,3870.72