File: data/xrd_icdd_PDF/00-058-0377 (PD3).csv
5,246
5.4,262
5.8,218
6.2,222
6.6,197
7,210
7.4,156
7.8,162
8.2,174
8.6,163
9,142
9.4,106
9.8,134
10.2,130
10.6,323
11,135
11.4,112
11.8,104
12.2,116
12.6,125
13,116
13.4,90
13.8,102
14.2,107
14.6,112
15,85
15.4,96
15.8,130
16.2,126
16.6,113
17,90
17.4,80
17.8,80
18.2,98
18.6,90
19,74
19.4,94
19.8,86
20.2,82
20.6,92
21,110
21.4,1570
21.8,122
22.2,80
22.6,93
23,82
23.4,62
23.8,80
24.2,92
24.6,90
25,111
25.4,98
25.8,80
26.2,118
26.6,118
27,101
27.4,111
27.8,108
28.2,134
28.6,142
29,182
29.4,572
29.8,249
30.2,149
30.6,142
31,254
31.4,1436
31.8,466
32.2,1674
32.6,7647
33,254
33.4,236
33.8,292
34.2,1190
34.6,287
35,184
35.4,158
35.8,138
36.2,250
36.6,1156
37,1030
37.4,173
37.8,112
38.2,100
38.6,126
39,94
39.4,97
39.8,93
40.2,98
40.6,118
41,133
41.4,161
41.8,308
42.2,697
42.6,278
43,154
43.4,245
43.8,1578
44.2,180
44.6,172
45,98
45.4,79
45.8,80
46.2,106
46.6,70
47,82
47.4,100
47.8,122
48.2,106
48.6,87
49,72
49.4,86
49.8,81
50.2,103
50.6,124
51,98
51.4,115
51.8,91
52.2,96
52.6,98
53,127
53.4,187
53.8,419
54.2,1001
54.6,466
55,236
55.4,444
55.8,258
56.2,142
56.6,118
57,104
57.4,114
57.8,102
58.2,120
58.6,127
59,105
59.4,126
59.8,112
60.2,114
60.6,132
61,250
61.4,272
61.8,150
62.2,205
62.6,214
63,123
63.4,124
63.8,165
64.2,326
64.6,156
65,171
65.4,304
65.8,990
66.2,314
66.6,138
67,110
67.4,112
67.8,170
68.2,173
68.6,112
69,118
69.4,175
69.8,162
70.2,190
70.6,254
71,389
71.4,249
71.8,178
72.2,163
72.6,140
73,163
73.4,222
73.8,265
74.2,156
74.6,136
75,95
75.4,123
75.8,238
76.2,157
76.6,106
77,88
77.4,118
77.8,120
78.2,128
78.6,126
79,94
79.4,86
79.8,118
80.2,111
80.6,134
81,206
81.4,364
81.8,198
82.2,116
82.6,104
83,105
83.4,119
83.8,116
84.2,98
84.6,98
85,99
85.4,108
85.8,126
86.2,110
86.6,104
87,112
87.4,124
87.8,115
88.2,122
88.6,166
89,230
89.4,144
89.8,111
90.2,98
90.6,110
91,111
91.4,156
91.8,193
92.2,361
92.6,372
93,168
93.4,132
93.8,120
94.2,134
94.6,124
95,138
95.4,146
95.8,196
96.2,398
96.6,435
97,186
97.4,131
97.8,132
98.2,102
98.6,104
99,118
99.4,114
99.8,128
100.2,145
100.6,133
101,166
101.4,161
101.8,170
102.2,138
102.6,122
103,124
103.4,135
103.8,139
104.2,146
104.6,128
105,129
105.4,130
105.8,156
106.2,174
106.6,153
107,212
107.4,272
107.8,244
108.2,231
108.6,252
109,190
109.4,142
109.8,128
110.2,144
110.6,146
111,183
111.4,284
111.8,324
112.2,262
112.6,178
113,148
113.4,132
113.8,134
114.2,128
114.6,124
115,120
115.4,118
115.8,127
116.2,141
116.6,170
117,176
117.4,166
117.8,152
118.2,134
118.6,148
119,137
119.4,128
119.8,160
120.02,142