File: data/xrd_icdd_PDF/00-060-0758 (PD3).csv
5.0066,905
5.4616,438
5.9166,341
6.3716,353
6.8266,474
7.2816,398
7.7366,174
8.1916,66
8.6466,59
9.1016,46
9.5566,42
10.0116,33
10.4666,24
10.9216,27
11.3766,27
11.8316,42
12.2866,28
12.7416,39
13.1966,35
13.6516,49
14.1066,86
14.5616,57
15.0166,65
15.4716,110
15.9266,72
16.3816,51
16.8366,50
17.2916,68
17.7466,49
18.2016,71
18.6566,58
19.1116,49
19.5666,47
20.0216,49
20.4766,63
20.9316,51
21.3866,54
21.8416,51
22.2966,54
22.7516,54
23.2066,51
23.6616,55
24.1166,57
24.5716,221
25.0266,58
25.4816,61
25.9366,50
26.3916,102
26.8466,62
27.3016,64
27.7566,63
28.2116,63
28.6666,89
29.1216,1764
29.5766,77
30.0316,84
30.4866,95
30.9416,1534
31.3966,133
31.8516,69
32.3066,208
32.7616,70
33.2166,82
33.6716,85
34.1266,1158
34.5816,60
35.0366,51
35.4916,379
35.9466,87
36.4016,61
36.8566,45
37.3116,58
37.7666,87
38.2216,561
38.6766,121
39.1316,44
39.5866,44
40.0416,71
40.4966,181
40.9516,53
41.4066,63
41.8616,637
42.3166,62
42.7716,54
43.2266,53
43.6816,58
44.1366,33
44.5916,327
45.0466,56
45.5016,65
45.9566,911
46.4116,65
46.8666,94
47.3216,182
47.7766,71
48.2316,80
48.6866,72
49.1416,56
49.5966,93
50.0516,132
50.5066,51
50.9616,60
51.4166,170
51.8716,57
52.3266,230
52.7816,105
53.2366,63
53.6916,73
54.1466,418
54.6016,314
55.0566,195
55.5116,133
55.9666,412
56.4216,52
56.8766,51
57.3316,85
57.7866,91
58.2416,67
58.6966,42
59.1516,65
59.6066,81
60.0616,474
60.5166,389
60.9716,60
61.4266,115
61.8816,57
62.3366,63
62.7916,233
63.2466,72
63.7016,44
64.1566,56
64.6116,72
65.0666,104
65.5216,186
65.9766,301
66.4316,215
66.8866,55
67.3416,113
67.7966,199
68.2516,72
68.7066,63
69.1616,44
69.6166,81
70.0716,63
70.5266,71
70.9816,43
71.4366,125
71.8916,85
72.3466,61
72.8016,42
73.2566,45
73.7116,57
74.1666,50
74.6216,45
75.0766,54
75.5316,53
75.9866,75
76.4416,156
76.8966,92
77.3516,54
77.8066,34
78.2616,72
78.7166,62
79.1716,61
79.6266,52
80.0816,82
80.5366,144
80.9916,78
81.4466,71
81.9016,169
82.3566,63
82.8116,71
83.2666,62
83.7216,47
84.1766,59
84.6316,47
85.0866,58
85.5416,62
85.9966,51
86.4516,99
86.9066,84
87.3616,92
87.8166,75
88.2716,111
88.7266,105
89.1816,73
89.6366,66
90.0916,51
90.5466,74
91.0016,159
91.4566,65
91.9116,81
92.3666,41
92.8216,79
93.2766,64
93.7316,41
94.1866,68
94.6416,43
95.0966,45
95.5516,87
96.0066,137
96.4616,71
96.9166,67
97.3716,50
97.8266,55
98.2816,56
98.7366,82
99.1916,71
99.6466,76
100.1016,73
100.5566,70
101.0116,120
101.4666,81
101.9216,122
102.3766,137
102.8316,85
103.2866,73
103.7416,84
104.1966,48
104.6516,56
105.1066,66
105.5616,56
106.0166,63
106.4716,104
106.9266,80
107.3816,67
107.8366,52
108.2916,49
108.7466,42
109.2016,58
109.6566,41
110.1116,53
110.5666,49
111.0216,61
111.4766,75
111.9316,77
112.3866,58
112.8416,60
113.2966,80
113.7516,76
114.2066,72
114.6616,130
115.1166,112
115.5716,102
116.0266,93
116.4816,72
116.9366,73
117.3916,66
117.8466,72
118.3016,57
118.7566,66
119.2116,59
119.6666,58
120.1216,78
120.5766,50
121.0316,46
121.4866,40
121.9416,45
122.3966,43
122.8516,62
123.3066,92
123.7616,78
124.2166,72
124.6716,65
125.1266,85
125.5816,97
126.0366,70
126.4916,84
126.9466,90
127.4016,83
127.8566,88
128.3116,70
128.7666,73
129.2216,46
129.6766,67
130.1316,73
130.5866,74
131.0416,106
131.4966,101
131.9516,61
132.4066,75
132.8616,109
133.3166,131
133.7716,141
134.2266,98
134.6816,59
135.1366,81
135.5916,80
136.0466,56
136.5016,66
136.9566,69
137.4116,88
137.8666,93
138.3216,106
138.7766,102
139.2316,83
139.6866,93
139.9986,131