File: data/xrd_icdd_PDF/00-059-0211 (PD3).csv
6,4174
6.36,4039
6.72,3965
7.08,3902
7.44,3878
7.8,3792
8.16,3702
8.52,3715
8.88,3645
9.24,3665
9.6,3671
9.96,3904
10.32,3515
10.68,3542
11.04,3552
11.4,3535
11.76,3485
12.12,3529
12.48,3454
12.84,3452
13.2,3487
13.56,3480
13.92,3442
14.28,3407
14.64,3415
15,3441
15.36,3423
15.72,3439
16.08,3427
16.44,3376
16.8,3414
17.16,3415
17.52,3359
17.88,3399
18.24,3391
18.6,4151
18.96,3400
19.32,3381
19.68,3356
20.04,3353
20.4,3366
20.76,3366
21.12,3329
21.48,3372
21.84,3330
22.2,3354
22.56,3370
22.92,3833
23.28,3473
23.64,3350
24,3323
24.36,3347
24.72,4006
25.08,3423
25.44,3397
25.8,3293
26.16,3269
26.52,3276
26.88,3320
27.24,3577
27.6,3508
27.96,3326
28.32,3305
28.68,3293
29.04,3286
29.4,3382
29.76,3288
30.12,3896
30.48,3242
30.84,3271
31.2,3357
31.56,3637
31.92,4061
32.28,7914
32.64,3476
33,3275
33.36,3644
33.72,4544
34.08,9725
34.44,11822
34.8,4451
35.16,5191
35.52,24858
35.88,4699
36.24,3703
36.6,4025
36.96,9871
37.32,12782
37.68,6307
38.04,6273
38.4,3592
38.76,3436
39.12,3338
39.48,4391
39.84,3512
40.2,3372
40.56,4151
40.92,3286
41.28,3465
41.64,3170
42,3932
42.36,3708
42.72,5189
43.08,4212
43.44,3251
43.8,3283
44.16,3325
44.52,3244
44.88,3306
45.24,3328
45.6,3296
45.96,5052
46.32,3632
46.68,3567
47.04,3884
47.4,3578
47.76,3251
48.12,3953
48.48,3345
48.84,3410
49.2,3297
49.56,3602
49.92,3629
50.28,4126
50.64,6512
51,3764
51.36,6375
51.72,5502
52.08,3566
52.44,3645
52.8,3807
53.16,4654
53.52,3555
53.88,5039
54.24,4771
54.6,3540
54.96,3281
55.32,3374
55.68,3380
56.04,3696
56.4,3291
56.76,3515
57.12,3842
57.48,3870
57.84,4747
58.2,3991
58.56,3412
58.92,4255
59.28,5323
59.64,4111
60,3617
60.36,5583
60.72,4062
61.08,3350
61.44,3447
61.8,3710
62.16,4809
62.52,3825
62.88,3596
63.24,3621
63.6,3776
63.96,4317
64.32,4366
64.68,5019
65.04,6857
65.4,4582
65.76,4458
66.12,3331
66.48,3283
66.84,4011
67.2,3776
67.56,3673
67.92,4213
68.28,4099
68.64,4271
69,4594
69.36,3390
69.72,3435
70.08,3203
70.44,3286
70.8,3292
71.16,3574
71.52,3851
71.88,3618
72.24,3606
72.6,4725
72.96,5452
73.32,4938
73.68,6386
74.04,4123
74.4,4855
74.76,3920
75.12,4375
75.48,3871
75.84,3957
76.2,3495
76.56,3522
76.92,3683
77.28,4106
77.64,3837
78,3439
78.36,3773
78.72,3861
79.08,3795
79.44,3490
79.8,3435
80.16,3345
80.52,3412
80.88,3819
81.24,3716
81.6,3350
81.96,3371
82.32,3230
82.68,3281
83.04,3095
83.4,3222
83.76,3045
84.12,3125
84.48,3324
84.84,3319
85.2,3622
85.56,3436
85.92,3667
86.28,3752
86.64,3642
87,3381
87.36,3594
87.72,3485
88.08,3524
88.44,3331
88.8,3305
89.16,3412
89.52,3648
89.88,3766
90.24,3348
90.6,3897
90.96,3664
91.32,3486
91.68,3497
92.04,3360
92.4,3283
92.76,3316
93.12,3341
93.48,3369
93.84,3340
94.2,3358
94.56,3438
94.92,3787
95.28,3755
95.64,3871
96,3728
96.36,3667
96.72,3443
97.08,3847
97.44,3927
97.8,3595
98.16,3514
98.52,3372
98.88,3564
99.24,3491
99.6,3360
99.96,3299
100.32,3485
100.68,3498
101.04,3578
101.4,3510
101.76,3655
102.12,4129
102.48,3936
102.84,3629
103.2,3387
103.56,3295
103.92,3256
104.28,3356
104.64,3385
105,3346
105.36,3300
105.72,3214
106.08,3283
106.44,3484
106.8,3445
107.16,3192
107.52,3409
107.88,3698
108.24,4014
108.6,4320
108.96,4038
109.32,3507
109.68,3294
110,3224