File: data/xrd_icdd_PDF/00-073-0268 (PD3).csv
20,100
20.28539,110
20.57078,107
20.85617,66
21.14156,96
21.42695,82
21.71234,88
21.99774,91
22.28313,79
22.56852,86
22.85391,111
23.1393,135
23.42469,1483
23.71008,193
23.99547,105
24.28086,90
24.56625,71
24.85164,84
25.13703,78
25.42242,62
25.70782,71
25.99321,68
26.2786,70
26.56399,56
26.84938,83
27.13477,58
27.42016,57
27.70555,69
27.99094,76
28.27633,61
28.56172,65
28.84711,63
29.1325,62
29.4179,68
29.70329,39
29.98868,67
30.27407,65
30.55946,65
30.84485,46
31.13024,52
31.41563,54
31.70102,47
31.98641,53
32.2718,70
32.55719,96
32.84258,108
33.12798,234
33.41337,3237
33.69876,266
33.98415,92
34.26954,71
34.55493,66
34.84032,57
35.12571,40
35.4111,50
35.69649,47
35.98188,37
36.26727,46
36.55266,33
36.83806,35
37.12345,33
37.40884,52
37.69423,48
37.97962,34
38.26501,41
38.5504,42
38.83579,31
39.12118,50
39.40657,49
39.69196,41
39.97735,45
40.26274,60
40.54813,65
40.83353,95
41.11892,615
41.40431,520
41.6897,74
41.97509,51
42.26048,39
42.54587,49
42.83126,46
43.11665,32
43.40204,39
43.68743,24
43.97282,37
44.25821,35
44.54361,29
44.829,29
45.11439,34
45.39978,34
45.68517,35
45.97056,30
46.25595,38
46.54134,30
46.82673,31
47.11212,39
47.39751,50
47.6829,139
47.96829,864
48.25369,202
48.53908,59
48.82447,32
49.10986,36
49.39525,48
49.68064,25
49.96603,23
50.25142,30
50.53681,26
50.8222,29
51.10759,22
51.39298,25
51.67837,27
51.96377,26
52.24916,33
52.53455,16
52.81994,25
53.10533,34
53.39072,36
53.67611,67
53.9615,291
54.24689,285
54.53228,47
54.81767,31
55.10306,23
55.38845,20
55.67385,21
55.95924,11
56.24463,26
56.53002,20
56.81541,21
57.1008,21
57.38619,26
57.67158,25
57.95697,26
58.24236,32
58.52775,24
58.81314,34
59.09853,50
59.38393,137
59.66932,731
59.95471,388
60.2401,72
60.52549,41
60.81088,25
61.09627,27
61.38166,18
61.66705,21
61.95244,18
62.23783,33
62.52322,21
62.80861,18
63.09401,17
63.3794,20
63.66479,15
63.95018,17
64.23557,15
64.52096,14
64.80635,11
65.09174,19
65.37713,21
65.66252,16
65.94791,14
66.2333,21
66.51869,21
66.80409,21
67.08948,15
67.37487,13
67.66026,17
67.94565,17
68.23104,19
68.51643,12
68.80182,23
69.08721,22
69.3726,18
69.65799,41
69.94338,143
70.22877,367
70.51417,135
70.79956,33
71.08495,31
71.37034,24
71.65573,13
71.94112,20
72.22651,24
72.5119,13
72.79729,21
73.08268,22
73.36807,30
73.65346,22
73.93885,20
74.22424,12
74.50964,27
74.79503,45
75.08042,157
75.36581,103
75.6512,40
75.93659,24
76.22198,22
76.50737,23
76.79276,16
77.07815,29
77.36354,17
77.64893,11
77.93432,19
78.21972,11
78.50511,20
78.7905,15
79.07589,22
79.36128,39
79.64667,94
79.93206,229
80.21745,178
80.50284,52
80.78823,30
81.07362,19
81.35901,22
81.6444,21
81.9298,18
82.21519,19
82.50058,19
82.78597,18
83.07136,21
83.35675,15
83.64214,14
83.92753,25
84.21292,36
84.49831,81
84.7837,176
85.06909,104
85.35448,28
85.63988,17
85.92527,22
86.21066,12
86.49605,20
86.78144,18
87.06683,13
87.35222,21
87.63761,20
87.923,20
88.20839,17
88.49378,21
88.77917,18
89.06456,30
89.34996,87
89.63535,92
89.92074,36
90.20613,27
90.49152,16
90.77691,19
91.0623,11
91.34769,12
91.63308,11
91.91847,18
92.20386,18
92.48925,14
92.77464,20
93.06004,23
93.34543,16
93.63082,18
93.91621,56
94.2016,82
94.48699,51
94.77238,40
95.05777,16
95.34316,20
95.62855,15
95.91394,19
96.19933,16
96.48472,17
96.77012,23
97.05551,10
97.3409,14
97.62629,20
97.91168,23
98.19707,29
98.48246,75
98.76785,180
99.05324,265
99.33863,158
99.62402,69
99.90941,40
99.99095,22