File: data/xrd_icdd_PDF/00-054-0562 (PD3).csv
10,1056
10.34,952
10.68,1052
11.02,904
11.36,888
11.7,846
12.04,786
12.38,836
12.72,796
13.06,742
13.4,698
13.74,690
14.08,634
14.42,658
14.76,666
15.1,600
15.44,608
15.78,698
16.12,634
16.46,680
16.8,532
17.14,608
17.48,528
17.82,544
18.16,480
18.5,600
18.84,516
19.18,484
19.52,500
19.86,552
20.2,582
20.54,590
20.88,566
21.22,612
21.56,680
21.9,2610
22.24,1122
22.58,604
22.92,544
23.26,574
23.6,586
23.94,662
24.28,806
24.62,3220
24.96,582
25.3,578
25.64,622
25.98,578
26.32,644
26.66,716
27,750
27.34,820
27.68,1122
28.02,6188
28.36,2738
28.7,946
29.04,746
29.38,756
29.72,644
30.06,652
30.4,698
30.74,690
31.08,780
31.42,828
31.76,886
32.1,1604
32.44,12880
32.78,12820
33.12,1788
33.46,1104
33.8,872
34.14,748
34.48,680
34.82,726
35.16,624
35.5,622
35.84,658
36.18,508
36.52,684
36.86,648
37.2,1104
37.54,5632
37.88,7970
38.22,958
38.56,536
38.9,454
39.24,374
39.58,342
39.92,382
40.26,382
40.6,392
40.94,410
41.28,414
41.62,402
41.96,552
42.3,708
42.64,1340
42.98,9198
43.32,6816
43.66,952
44,536
44.34,454
44.68,438
45.02,420
45.36,374
45.7,420
46.04,432
46.38,508
46.72,512
47.06,520
47.4,520
47.74,574
48.08,736
48.42,1110
48.76,2710
49.1,11120
49.44,1320
49.78,766
50.12,1734
50.46,1668
50.8,616
51.14,596
51.48,670
51.82,946
52.16,4130
52.5,2878
52.84,652
53.18,540
53.52,358
53.86,364
54.2,424
54.54,374
54.88,416
55.22,406
55.56,442
55.9,462
56.24,480
56.58,436
56.92,476
57.26,556
57.6,604
57.94,736
58.28,1906
58.62,12344
58.96,1638
59.3,662
59.64,414
59.98,438
60.32,374
60.66,428
61,472
61.34,544
61.68,1718
62.02,790
62.36,1660
62.7,3454
63.04,930
63.38,512
63.72,484
64.06,468
64.4,428
64.74,420
65.08,428
65.42,446
65.76,428
66.1,442
66.44,574
66.78,756
67.12,2262
67.46,4716
67.8,1182
68.14,1624
68.48,1922
68.82,776
69.16,596
69.5,596
69.84,1288
70.18,1432
70.52,648
70.86,600
71.2,582
71.54,652
71.88,1300
72.22,5126
72.56,12800
72.9,2494
73.24,1092
73.58,676
73.92,544
74.26,516
74.6,566
74.94,722
75.28,1576
75.62,2000
75.96,670
76.3,516
76.64,396
76.98,368
77.32,344
77.66,484
78,770
78.34,1182
78.68,622
79.02,536
79.36,908
79.7,552
80.04,400
80.38,372
80.72,372
81.06,364
81.4,382
81.74,358
82.08,402
82.42,466
82.76,622
83.1,1176
83.44,2112
83.78,836
84.12,586
84.46,640
84.8,468
85.14,438
85.48,532
85.82,1226
86.16,840
86.5,378
86.84,382
87.18,318
87.52,352
87.86,334
88.2,334
88.54,316
88.88,318
89.22,344
89.56,352
89.9,410
90.24,524
90.58,708
90.92,2194
91.26,2320
91.6,946
91.94,468
92.28,372
92.62,468
92.96,462
93.3,516
93.64,800
93.98,904
94.32,1158
94.66,2364
95,2244
95.34,962
95.68,582
96.02,492
96.36,372
96.7,432
97.04,438
97.38,438
97.72,428
98.06,536
98.4,766
98.74,1756
99.08,1822
99.42,1036
99.76,786
100.1,680
100.44,480
100.78,552
101.12,846
101.46,996
101.8,806
102.14,630
102.48,566
102.82,616
103.16,850
103.5,1860
103.84,4072
104.18,3100
104.52,1590
104.86,888
105.2,644
105.54,648
105.88,652
106.22,760
106.56,1638
106.9,2252
107.24,1432
107.58,746
107.92,640
108.26,578
108.6,590
108.94,616
109.28,882
109.62,1232
109.96,1498
110.02,1682