File: data/xrd_icdd_PDF/00-055-0638 (PD3).csv
6,4523
6.32,4241
6.64,4064
6.96,3906
7.28,3578
7.6,3466
7.92,3321
8.24,3164
8.56,3032
8.88,2882
9.2,2783
9.52,2652
9.84,2672
10.16,2463
10.48,2395
10.8,2238
11.12,2256
11.44,2133
11.76,1975
12.08,1881
12.4,1914
12.72,1871
13.04,1733
13.36,1707
13.68,1600
14,1555
14.32,1516
14.64,1487
14.96,1487
15.28,1411
15.6,1392
15.92,1323
16.24,1287
16.56,1406
16.88,1416
17.2,1238
17.52,1256
17.84,1152
18.16,1173
18.48,1122
18.8,1169
19.12,1081
19.44,1269
19.76,1487
20.08,10113
20.4,3101
20.72,12769
21.04,4718
21.36,1203
21.68,1052
22,1036
22.32,1000
22.64,949
22.96,3977
23.28,896
23.6,961
23.92,791
24.24,823
24.56,809
24.88,919
25.2,1502
25.52,923
25.84,908
26.16,2538
26.48,1097
26.8,893
27.12,870
27.44,893
27.76,827
28.08,770
28.4,812
28.72,1135
29.04,930
29.36,1482
29.68,2407
30,49701
30.32,1822
30.64,1229
30.96,1319
31.28,1301
31.6,2082
31.92,32829
32.24,2133
32.56,1565
32.88,1444
33.2,2059
33.52,50766
33.84,2950
34.16,3875
34.48,68415
34.8,2685
35.12,1328
35.44,1064
35.76,1118
36.08,10738
36.4,1671
36.72,889
37.04,896
37.36,1008
37.68,852
38,863
38.32,1748
38.64,1131
38.96,904
39.28,827
39.6,3481
39.92,689
40.24,739
40.56,679
40.88,756
41.2,2991
41.52,874
41.84,1865
42.16,2665
42.48,3108
42.8,953
43.12,692
43.44,666
43.76,743
44.08,699
44.4,791
44.72,2053
45.04,1383
45.36,3466
45.68,13326
46,1126
46.32,795
46.64,977
46.96,9276
47.28,1199
47.6,774
47.92,699
48.24,729
48.56,1203
48.88,2849
49.2,722
49.52,666
49.84,736
50.16,692
50.48,2389
50.8,1671
51.12,774
51.44,919
51.76,1754
52.08,10328
52.4,1156
52.72,878
53.04,3342
53.36,1865
53.68,3782
54,2364
54.32,2227
54.64,2698
54.96,1260
55.28,1152
55.6,16803
55.92,3228
56.24,1036
56.56,852
56.88,798
57.2,863
57.52,2304
57.84,1056
58.16,837
58.48,2475
58.8,996
59.12,809
59.44,852
59.76,819
60.08,1081
60.4,5729
60.72,15892
61.04,1876
61.36,1160
61.68,4848
62,2652
62.32,5166
62.64,1260
62.96,1283
63.28,5467
63.6,3653
63.92,1036
64.24,781
64.56,911
64.88,4590
65.2,3503
65.52,977
65.84,1595
66.16,2221
66.48,6602
66.8,4909
67.12,1008
67.44,712
67.76,774
68.08,1477
68.4,973
68.72,1190
69.04,2383
69.36,2849
69.68,819
70,597
70.32,760
70.64,2053
70.96,774
71.28,625
71.6,573
71.92,558
72.24,573
72.56,2215
72.88,1844
73.2,609
73.52,564
73.84,647
74.16,938
74.48,834
74.8,1186
75.12,1287
75.44,594
75.76,515
76.08,481
76.4,696
76.72,683
77.04,523
77.36,457
77.68,473
78,859
78.32,1182
78.64,1355
78.96,1305
79.28,1216
79.6,1980
79.92,911
80.24,532
80.56,520
80.88,743
81.2,696
81.52,468
81.84,476
82.16,503
82.48,509
82.8,518
83.12,457
83.44,465
83.76,679
84.08,625
84.4,1048
84.72,2036
85.04,2203
85.36,1580
85.68,1402
86,1101
86.32,885
86.64,1828
86.96,2750
87.28,1110
87.6,616
87.92,613
88.24,653
88.56,1077
88.88,2197
89.2,1463
89.52,812
89.84,576
90.16,579
90.48,791
90.8,706
91.12,619
91.44,1028
91.76,3335
92.08,2340
92.4,1497
92.72,1416
93.04,1305
93.36,1269
93.68,984
94,893
94.32,1089
94.64,1449
94.96,1064
95.28,641
95.6,911
95.92,1702
96.24,1458
96.56,791
96.88,638
97.2,613
97.52,585
97.84,509
98.16,549
98.48,509
98.8,582
99.12,603
99.44,576
99.76,712
99.98,1152