File: data/xrd_icdd_PDF/00-063-0566 (PD3).csv
13,455
13.42,433
13.84,479
14.26,460
14.68,523
15.1,504
15.52,540
15.94,553
16.36,499
16.78,473
17.2,461
17.62,522
18.04,841
18.46,1312
18.88,510
19.3,456
19.72,723
20.14,477
20.56,595
20.98,507
21.4,415
21.82,429
22.24,431
22.66,417
23.08,469
23.5,492
23.92,463
24.34,381
24.76,413
25.18,408
25.6,408
26.02,416
26.44,416
26.86,461
27.28,433
27.7,388
28.12,367
28.54,380
28.96,374
29.38,373
29.8,362
30.22,372
30.64,423
31.06,381
31.48,376
31.9,414
32.32,413
32.74,360
33.16,385
33.58,423
34,376
34.42,392
34.84,437
35.26,6661
35.68,481
36.1,422
36.52,451
36.94,2838
37.36,420
37.78,419
38.2,362
38.62,370
39.04,353
39.46,347
39.88,391
40.3,456
40.72,582
41.14,404
41.56,383
41.98,423
42.4,584
42.82,6837
43.24,513
43.66,407
44.08,382
44.5,590
44.92,369
45.34,364
45.76,353
46.18,388
46.6,431
47.02,2110
47.44,475
47.86,366
48.28,469
48.7,360
49.12,355
49.54,335
49.96,356
50.38,384
50.8,367
51.22,362
51.64,435
52.06,367
52.48,336
52.9,360
53.32,341
53.74,389
54.16,428
54.58,508
55,381
55.42,372
55.84,538
56.26,382
56.68,1351
57.1,589
57.52,504
57.94,370
58.36,390
58.78,331
59.2,358
59.62,365
60.04,389
60.46,411
60.88,450
61.3,344
61.72,372
62.14,1903
62.56,1067
62.98,362
63.4,427
63.82,360
64.24,336
64.66,371
65.08,556
65.5,1105
65.92,388
66.34,400
66.76,363
67.18,419
67.6,414
68.02,355
68.44,368
68.86,364
69.28,339
69.7,342
70.12,354
70.54,328
70.96,320
71.38,351
71.8,435
72.22,355
72.64,371
73.06,396
73.48,587
73.9,358
74.32,749
74.74,897
75.16,410
75.58,364
76,336
76.42,364
76.84,489
77.26,363
77.68,391
78.1,479
78.52,838
78.94,496
79.36,376
79.78,398
80.2,356
80.62,363
81.04,415
81.46,563
81.88,557
82.3,400
82.72,340
83.14,356
83.56,305
83.98,337
84.4,365
84.82,344
85.24,326
85.66,339
86.08,353
86.5,344
86.92,338
87.34,351
87.76,315
88.18,385
88.6,390
89.02,791
89.44,526
89.86,360
90.28,366
90.7,321
91.12,391
91.54,343
91.96,368
92.38,359
92.8,347
93.22,363
93.64,476
94.06,505
94.48,343
94.9,352
95.32,380
95.74,318
96.16,305
96.58,339
97,463
97.42,435
97.84,342
98.26,391
98.68,371
99.1,366
99.52,379
99.94,375
100.36,363
100.78,361
101.2,297
101.62,375
102.04,375
102.46,379
102.88,382
103.3,358
103.72,371
104.14,607
104.56,473
104.98,453
105.4,561
105.82,439
106.24,429
106.66,341
107.08,360
107.5,357
107.92,355
108.34,354
108.76,442
109.18,781
109.6,824
110.02,596
110.44,431
110.86,391
111.28,358
111.7,362
112.12,487
112.54,539
112.96,443
113.38,419
113.8,370
114.22,362
114.64,341
115.06,327
115.48,351
115.9,356
116.32,380
116.74,351
117.16,318
117.58,315
118,326
118.42,309
118.84,413
119.26,395
119.68,375
120.1,346
120.52,402
120.94,550
121.36,464
121.78,377
122.2,323
122.62,330
123.04,367
123.46,369
123.88,322
124.3,383
124.72,400
125.14,411
125.56,393
125.98,392
126.4,739
126.82,780
127.24,590
127.66,526
128.08,426
128.5,379
128.92,383
129.34,373
129.76,424
130.18,557
130.6,517
131.02,447
131.44,445
131.86,375
132.28,394
132.7,400
133,407