File: data/xrd_icdd_PDF/00-051-0147 (PD3).csv
5,512
5.46,521
5.92,529
6.38,470
6.84,504
7.3,526
7.76,470
8.22,470
8.68,456
9.14,409
9.6,451
10.06,431
10.52,406
10.98,445
11.44,454
11.9,476
12.36,8781
12.82,473
13.28,445
13.74,400
14.2,442
14.66,378
15.12,409
15.58,417
16.04,412
16.5,493
16.96,465
17.42,986
17.88,440
18.34,437
18.8,406
19.26,437
19.72,428
20.18,409
20.64,378
21.1,409
21.56,510
22.02,400
22.48,400
22.94,386
23.4,398
23.86,378
24.32,448
24.78,5572
25.24,440
25.7,381
26.16,372
26.62,488
27.08,596
27.54,1358
28,1910
28.46,574
28.92,496
29.38,552
29.84,714
30.3,2164
30.76,1820
31.22,661
31.68,560
32.14,563
32.6,577
33.06,9940
33.52,501
33.98,470
34.44,445
34.9,501
35.36,5796
35.82,451
36.28,420
36.74,395
37.2,521
37.66,11043
38.12,507
38.58,384
39.04,378
39.5,378
39.96,319
40.42,358
40.88,392
41.34,378
41.8,1798
42.26,386
42.72,328
43.18,395
43.64,10637
44.1,473
44.56,372
45.02,375
45.48,1666
45.94,512
46.4,389
46.86,364
47.32,2621
47.78,504
48.24,420
48.7,546
49.16,14062
49.62,577
50.08,384
50.54,400
51,2288
51.46,414
51.92,370
52.38,773
52.84,526
53.3,361
53.76,308
54.22,549
54.68,339
55.14,325
55.6,370
56.06,442
56.52,325
56.98,381
57.44,832
57.9,378
58.36,470
58.82,3340
59.28,1042
59.74,515
60.2,622
60.66,1089
61.12,440
61.58,370
62.04,862
62.5,367
62.96,367
63.42,4306
63.88,456
64.34,350
64.8,1176
65.26,423
65.72,316
66.18,325
66.64,325
67.1,305
67.56,417
68.02,2386
68.48,358
68.94,291
69.4,384
69.86,316
70.32,339
70.78,860
71.24,350
71.7,370
72.16,1092
72.62,333
73.08,392
73.54,1380
74,347
74.46,353
74.92,963
75.38,305
75.84,529
76.3,1876
76.76,403
77.22,350
77.68,384
78.14,322
78.6,364
79.06,1103
79.52,344
79.98,440
80.44,658
80.9,339
81.36,812
81.82,991
82.28,330
82.74,283
83.2,330
83.66,325
84.12,2523
84.58,577
85.04,280
85.5,263
85.96,238
86.42,356
86.88,2117
87.34,381
87.8,260
88.26,269
88.72,274
89.18,288
89.64,454
90.1,266
90.56,291
91.02,428
91.48,291
91.94,619
92.4,946
92.86,288
93.32,423
93.78,381
94.24,280
94.7,848
95.16,588
95.62,297
96.08,801
96.54,350
97,333
97.46,1487
97.92,426
98.38,288
98.84,745
99.3,322
99.76,319
100.22,664
100.68,350
101.14,300
101.6,347
102.06,297
102.52,470
102.98,652
103.44,347
103.9,650
104.36,806
104.82,314
105.28,272
105.74,302
106.2,286
106.66,358
107.12,375
107.58,350
108.04,706
108.5,983
108.96,406
109.42,322
109.88,325
110.34,294
110.8,398
111.26,395
111.72,333
112.18,316
112.64,389
113.1,300
113.56,297
114.02,546
114.48,423
114.94,316
115.4,361
115.86,330
116.32,308
116.78,930
117.24,622
117.7,322
118.16,300
118.62,300
119.08,311
119.54,297
120,459
120.46,392
120.92,314
121.38,818
121.84,591
122.3,353
122.76,437
123.22,459
123.68,426
124.14,336
124.6,325
125.06,336
125.52,426
125.98,1714
126.44,1030
126.9,784
127.36,406
127.82,610
128.28,462
128.74,395
129.2,549
129.66,801
130.12,918
130.58,400
131.04,510
131.5,448
131.96,403
132.42,370
132.88,414
133.34,398
133.8,367
134.26,367
134.72,344
135.18,353
135.64,381
136.1,392
136.56,927
137.02,717
137.48,960
137.94,462
138.4,624
138.86,594
139.32,456
139.78,431
140,400