File: data/xrd_icdd_PDF/00-062-0297 (PD3).csv
3,517
3.46,418
3.92,417
4.38,364
4.84,295
5.3,263
5.76,250
6.22,236
6.68,201
7.14,176
7.6,153
8.06,170
8.52,142
8.98,127
9.44,120
9.9,133
10.36,124
10.82,102
11.28,79
11.74,103
12.2,83
12.66,91
13.12,73
13.58,109
14.04,95
14.5,83
14.96,80
15.42,76
15.88,73
16.34,70
16.8,64
17.26,70
17.72,62
18.18,75
18.64,349
19.1,70
19.56,67
20.02,40
20.48,121
20.94,53
21.4,79
21.86,96
22.32,63
22.78,62
23.24,65
23.7,75
24.16,832
24.62,52
25.08,58
25.54,68
26,69
26.46,62
26.92,57
27.38,52
27.84,112
28.3,62
28.76,62
29.22,355
29.68,155
30.14,204
30.6,17036
31.06,558
31.52,262
31.98,153
32.44,475
32.9,89
33.36,50
33.82,122
34.28,133
34.74,54
35.2,52
35.66,43
36.12,423
36.58,46
37.04,65
37.5,53
37.96,404
38.42,67
38.88,50
39.34,248
39.8,59
40.26,54
40.72,65
41.18,87
41.64,62
42.1,87
42.56,66
43.02,88
43.48,145
43.94,12501
44.4,299
44.86,88
45.32,764
45.78,88
46.24,68
46.7,56
47.16,69
47.62,50
48.08,146
48.54,339
49,74
49.46,374
49.92,68
50.38,72
50.84,172
51.3,61
51.76,62
52.22,85
52.68,83
53.14,87
53.6,99
54.06,186
54.52,5846
54.98,667
55.44,197
55.9,128
56.36,91
56.82,81
57.28,83
57.74,99
58.2,165
58.66,89
59.12,82
59.58,63
60.04,74
60.5,223
60.96,78
61.42,58
61.88,63
62.34,55
62.8,59
63.26,91
63.72,1141
64.18,1741
64.64,302
65.1,68
65.56,62
66.02,88
66.48,70
66.94,68
67.4,155
67.86,76
68.32,124
68.78,79
69.24,183
69.7,75
70.16,55
70.62,64
71.08,55
71.54,76
72,100
72.46,2314
72.92,610
73.38,176
73.84,174
74.3,76
74.76,72
75.22,64
75.68,71
76.14,69
76.6,75
77.06,55
77.52,251
77.98,171
78.44,53
78.9,61
79.36,65
79.82,54
80.28,115
80.74,364
81.2,444
81.66,166
82.12,87
82.58,56
83.04,56
83.5,58
83.96,68
84.42,95
84.88,94
85.34,255
85.8,98
86.26,69
86.72,110
87.18,90
87.64,63
88.1,106
88.56,1789
89.02,1616
89.48,837
89.94,140
90.4,78
90.86,84
91.32,69
91.78,103
92.24,80
92.7,55
93.16,86
93.62,194
94.08,87
94.54,55
95,52
95.46,54
95.92,70
96.38,66
96.84,403
97.3,135
97.76,192
98.22,96
98.68,60
99.14,57
99.6,49
100.06,65
100.52,160
100.98,127
101.44,124
101.9,166
102.36,82
102.82,58
103.28,56
103.74,82
104.2,128
104.66,546
105.12,1293
105.58,886
106.04,162
106.5,92
106.96,81
107.42,72
107.88,89
108.34,107
108.8,101
109.26,92
109.72,212
110.18,154
110.64,83
111.1,82
111.56,66
112.02,81
112.48,94
112.94,252
113.4,820
113.86,763
114.32,302
114.78,89
115.24,77
115.7,81
116.16,70
116.62,73
117.08,128
117.54,143
118,113
118.46,118
118.92,123
119.38,99
119.84,90
120.3,83
120.76,83
121.22,81
121.68,263
122.14,321
122.6,393
123.06,351
123.52,439
123.98,252
124.44,140
124.9,109
125.36,108
125.82,101
126.28,84
126.74,92
127.2,95
127.66,89
128.12,138
128.58,138
129.04,115
129.5,85
129.96,83
130.42,85
130.88,73
131.34,93
131.8,292
132.26,360
132.72,357
133.18,383
133.64,575
134.1,250
134.56,131
135.02,112
135.48,91
135.94,116
136.4,111
136.86,143
137.32,144
137.78,144
138.24,211
138.7,192
139.16,234
139.62,218
139.98,186