File: data/xrd_icdd_PDF/00-057-0451 (PD3).csv
10,5815
10.32,5550
10.64,5680
10.96,5318
11.28,5300
11.6,5040
11.92,5183
12.24,4968
12.56,5185
12.88,5905
13.2,15518
13.52,5028
13.84,5210
14.16,4925
14.48,4515
14.8,4768
15.12,4910
15.44,5435
15.76,4705
16.08,4455
16.4,4528
16.72,4428
17.04,4288
17.36,4078
17.68,4323
18,4143
18.32,4008
18.64,4113
18.96,4130
19.28,5415
19.6,4238
19.92,4163
20.24,3948
20.56,3825
20.88,3893
21.2,3735
21.52,3738
21.84,3745
22.16,3748
22.48,3863
22.8,4148
23.12,3803
23.44,3765
23.76,4245
24.08,4680
24.4,36685
24.72,4785
25.04,3860
25.36,4010
25.68,3898
26,4708
26.32,4603
26.64,9025
26.96,4873
27.28,21363
27.6,5048
27.92,4183
28.24,4003
28.56,4223
28.88,3973
29.2,4393
29.52,4325
29.84,6495
30.16,4665
30.48,3660
30.8,3860
31.12,3533
31.44,3768
31.76,3418
32.08,3378
32.4,3758
32.72,3548
33.04,4698
33.36,33460
33.68,4148
34,3550
34.32,3663
34.64,4205
34.96,16678
35.28,4033
35.6,3705
35.92,3883
36.24,3738
36.56,4083
36.88,4470
37.2,6160
37.52,3573
37.84,3585
38.16,3710
38.48,4188
38.8,13210
39.12,8888
39.44,8988
39.76,3943
40.08,3685
40.4,3578
40.72,3548
41.04,3600
41.36,3325
41.68,4503
42,4915
42.32,3443
42.64,3448
42.96,4920
43.28,5008
43.6,4813
43.92,4238
44.24,3993
44.56,4253
44.88,3668
45.2,3840
45.52,12213
45.84,5720
46.16,4108
46.48,11385
46.8,8698
47.12,3675
47.44,3640
47.76,4280
48.08,4398
48.4,4130
48.72,3443
49.04,4738
49.36,4223
49.68,12448
50,4388
50.32,3488
50.64,3568
50.96,5445
51.28,9630
51.6,5883
51.92,3725
52.24,4868
52.56,6665
52.88,3320
53.2,3248
53.52,4733
53.84,3425
54.16,3243
54.48,3393
54.8,3558
55.12,3508
55.44,3973
55.76,4250
56.08,3688
56.4,3485
56.72,3625
57.04,3593
57.36,3023
57.68,3045
58,3200
58.32,3250
58.64,5828
58.96,3883
59.28,3290
59.6,3440
59.92,3455
60.24,3320
60.56,5268
60.88,5713
61.2,3850
61.52,4410
61.84,6835
62.16,3515
62.48,3348
62.8,4773
63.12,3283
63.44,3205
63.76,2998
64.08,3655
64.4,4078
64.72,3295
65.04,5483
65.36,6140
65.68,4075
66,4543
66.32,3160
66.64,3080
66.96,3178
67.28,3365
67.6,3543
67.92,3425
68.24,3980
68.56,3843
68.88,6405
69.2,3698
69.52,3635
69.84,4995
70.16,3865
70.48,3233
70.8,3693
71.12,4693
71.44,3388
71.76,2970
72.08,4098
72.4,3315
72.72,3305
73.04,3308
73.36,3858
73.68,3583
74,3273
74.32,4308
74.64,4428
74.96,3408
75.28,3048
75.6,3443
75.92,4588
76.24,4073
76.56,3753
76.88,3105
77.2,4040
77.52,4328
77.84,3413
78.16,4468
78.48,3385
78.8,3498
79.12,3853
79.44,3525
79.76,4838
80.08,3978
80.4,3450
80.72,3380
81.04,4283
81.36,3828
81.68,5760
82,4060
82.32,3450
82.64,3438
82.96,3645
83.28,3958
83.6,3725
83.92,4338
84.24,3500
84.56,3525
84.88,4270
85.2,4208
85.52,3293
85.84,3148
86.16,3143
86.48,3298
86.8,3278
87.12,4135
87.44,3885
87.76,3425
88.08,3233
88.4,4358
88.72,3973
89.04,3200
89.36,4233
89.68,4350
90,3505
90.32,3940
90.64,3483
90.96,3495
91.28,3235
91.6,3093
91.92,2908
92.24,2725
92.56,3133
92.88,3070
93.2,3795
93.52,3675
93.84,3470
94.16,3495
94.48,3273
94.8,3233
95.12,3158
95.44,2770
95.76,2858
96.08,3543
96.4,3883
96.72,3160
97.04,3225
97.36,3425
97.68,3298
98,3098
98.32,3315
98.64,3510
98.96,3360
99.28,3310
99.6,3393
99.92,3385
100,3335