File: data/xrd_icdd_PDF/00-057-0836 (PD3).csv
14.977,783
15.447,764
15.917,780
16.387,695
16.857,618
17.327,603
17.797,740
18.267,569
18.737,525
19.207,517
19.677,545
20.147,558
20.617,565
21.087,527
21.557,525
22.027,537
22.497,492
22.967,466
23.437,499
23.907,479
24.377,487
24.847,552
25.317,488
25.787,535
26.257,630
26.727,1618
27.197,17916
27.667,5676
28.137,1308
28.607,1118
29.077,1108
29.547,15395
30.017,1237
30.487,784
30.957,678
31.427,588
31.897,732
32.367,1101
32.837,20161
33.307,687
33.777,541
34.247,546
34.717,535
35.187,467
35.657,424
36.127,582
36.597,416
37.067,415
37.537,1709
38.007,645
38.477,362
38.947,379
39.417,350
39.887,370
40.357,346
40.827,696
41.297,379
41.767,355
42.237,349
42.707,378
43.177,661
43.647,549
44.117,591
44.587,4887
45.057,2130
45.527,662
45.997,626
46.467,550
46.937,5991
47.407,692
47.877,519
48.347,466
48.817,435
49.287,463
49.757,525
50.227,511
50.697,791
51.167,13660
51.637,1011
52.107,572
52.577,524
53.047,456
53.517,572
53.987,601
54.457,597
54.927,1231
55.397,16149
55.867,941
56.337,1508
56.807,3013
57.277,592
57.747,452
58.217,435
58.687,438
59.157,412
59.627,393
60.097,401
60.567,411
61.037,388
61.507,3557
61.977,436
62.447,372
62.917,390
63.387,360
63.857,334
64.327,334
64.797,341
65.267,341
65.737,365
66.207,337
66.677,368
67.147,329
67.617,360
68.087,395
68.557,1106
69.027,645
69.497,434
69.967,409
70.437,460
70.907,547
71.377,2990
71.847,1891
72.317,5786
72.787,521
73.257,461
73.727,471
74.197,426
74.667,480
75.137,672
75.607,2228
76.077,599
76.547,5229
77.017,614
77.487,455
77.957,706
78.427,2793
78.897,440
79.367,399
79.837,390
80.307,423
80.777,1838
81.247,905
81.717,397
82.187,443
82.657,438
83.127,461
83.597,504
84.067,4634
84.537,697
85.007,443
85.477,712
85.947,2223
86.417,501
86.887,367
87.357,383
87.827,369
88.297,326
88.767,368
89.237,356
89.707,407
90.177,422
90.647,2211
91.117,487
91.587,426
92.057,366
92.527,363
92.997,380
93.467,541
93.937,2253
94.407,600
94.877,385
95.347,356
95.817,348
96.287,371
96.757,342
97.227,345
97.697,347
98.167,355
98.637,412
99.107,1633
99.577,1221
100.047,605
100.517,814
100.987,411
101.457,437
101.927,481
102.397,4493
102.867,1640
103.337,465
103.807,401
104.277,412
104.747,407
105.217,418
105.687,615
106.157,745
106.627,483
107.097,430
107.567,465
108.037,535
108.507,2685
108.977,3045
109.447,1626
109.917,1074
110.387,597
110.857,529
111.327,485
111.797,500
112.267,631
112.737,2102
113.207,1015
113.677,1030
114.147,999
114.617,504
115.087,444
115.557,1097
116.027,785
116.497,438
116.967,446
117.437,426
117.907,474
118.377,423
118.847,489
119.317,589
119.787,1496
120.257,1113
120.727,458
121.197,476
121.667,538
122.137,1457
122.607,836
123.077,596
123.547,549
124.017,788
124.487,785
124.957,654
125.427,542
125.897,598
126.367,1002
126.837,1067
127.307,517
127.777,511
128.247,488
128.717,511
129.187,519
129.657,609
130.127,1639
130.597,1119
131.067,1163
131.537,588
132.007,576
132.477,585
132.947,2218
133.417,819
133.887,766
134.357,568
134.827,574
135.297,591
135.767,739
136.237,2938
136.707,1089
137.177,897
137.647,606
138.117,557
138.587,522
139.057,555
139.527,550
139.997,507
140.467,562
140.937,554
141.407,548
141.877,569
142.347,721
142.817,1815
143.287,837
143.757,1085
144.227,1168
144.697,1115
145.167,999
145.637,802
146.107,635
146.577,600
147.047,626
147.517,725
147.987,1046
148.457,3049
148.927,1113
149.397,2054
149.867,831
150.337,690
150.807,641
151.277,576
151.747,622
152.217,619
152.687,617
153.157,588
153.627,636
154.097,603
154.567,609
154.977,551