File: data/xrd_icdd_PDF/00-064-0101 (PD3).csv
20.015,1588.01
20.219,1595.72
20.423,1561.74
20.627,1580.24
20.831,1604.68
21.035,1561.65
21.239,1534.04
21.443,1542.1
21.647,1525.33
21.851,1524.86
22.055,1483.94
22.259,1501.03
22.463,1533.43
22.667,1550.28
22.871,1561.46
23.075,1498.94
23.279,1533.23
23.483,1616.03
23.687,1698.05
23.891,2452.2
24.095,4174.66
24.299,2197.84
24.503,2312.2
24.707,1690.446
24.911,1587.214
25.115,1555.91
25.319,1589.09
25.523,1537.79
25.727,1526.23
25.931,1501.94
26.135,1716.13
26.339,1693.39
26.543,1577.59
26.747,1521.6
26.951,1475.57
27.155,1465.3
27.359,1474.1
27.563,1415.3
27.767,1484.73
27.971,1507.505
28.175,1502.528
28.379,1529.55
28.583,1528.17
28.787,1608.95
28.991,1870.364
29.195,1542.11
29.399,1482.82
29.603,1508.98
29.807,1474.87
30.011,1486.07
30.215,1521.7
30.419,1456.18
30.623,1505.2
30.827,1451.81
31.031,1518.84
31.235,1538.61
31.439,1539.95
31.643,1781.52
31.847,1576.43
32.051,1467.47
32.255,1534.33
32.459,1594.68
32.663,1529.68
32.867,1481.636
33.071,1562.03
33.275,1593.82
33.479,1705.22
33.683,1694.93
33.887,1692.58
34.091,1765.19
34.295,1918.64
34.499,2373.27
34.703,3565.05
34.907,5583.44
35.111,3653.05
35.315,3297.51
35.519,4217.2
35.723,7040.91
35.927,10127.3
36.131,7477.95
36.335,4419.62
36.539,2994.72
36.743,2491.61
36.947,2010.25
37.151,1888.76
37.355,1753.29
37.559,1682.45
37.763,1736.87
37.967,1677.09
38.171,1652.38
38.375,1596.66
38.579,1580.25
38.783,1669.8
38.987,1721.13
39.191,2016.83
39.395,2536.08
39.599,2000
39.803,1837.58
40.007,1733.92
40.211,1673.17
40.415,1623.67
40.619,1689.18
40.823,1730.39
41.027,1764.49
41.231,1899.421
41.435,2328.26
41.639,3087.85
41.843,4004.51
42.047,5289.93
42.251,3264.48
42.455,3020.47
42.659,5317.409
42.863,4342.275
43.067,2646.607
43.271,2074.419
43.475,1732.14
43.679,1695.8
43.883,1642.61
44.087,1574.73
44.291,1514.81
44.495,1570.28
44.699,1504.1
44.903,1509.26
45.107,1439.478
45.311,1445
45.515,1537.08
45.719,1421.97
45.923,1438.01
46.127,1437.36
46.331,1418.73
46.535,1445.51
46.739,1417.87
46.943,1439.29
47.147,1442.18
47.351,1460.71
47.555,1424.04
47.759,1465.63
47.963,1486.58
48.167,1514.16
48.371,1527.46
48.575,1446.84
48.779,1477.729
48.983,1449.3
49.187,1630.56
49.391,1470.58
49.595,1479.46
49.799,1453.04
50.003,1496.419
50.207,1548.09
50.411,1473.27
50.615,1500.66
50.819,1523.61
51.023,1487.23
51.227,1538.61
51.431,1507.73
51.635,1508.17
51.839,1479.772
52.043,1455.14
52.247,1453.686
52.451,1512.02
52.655,1510.44
52.859,1516.08
53.063,1518.46
53.267,1468.08
53.471,1562.58
53.675,1617.102
53.879,1776.78
54.083,1739.32
54.287,1649.075
54.491,1609.99
54.695,1583.97
54.899,1577.8
55.103,1631.251
55.307,1734.05
55.511,1915.81
55.715,1814.325
55.919,1857.48
56.123,1979.94
56.327,2454.92
56.531,3108.55
56.735,2722.63
56.939,2091.19
57.143,2044.01
57.347,1959.39
57.551,1750.31
57.755,1731.51
57.959,1598.79
58.163,1655.51
58.367,1674.51
58.571,1774.73
58.775,1881.38
58.979,2092.82
59.183,1916.29
59.387,1769.74
59.591,1888.87
59.795,2057.97
59.999,2055.78
60.203,1951.43
60.407,1931.79
60.611,1996.6
60.815,1866.92
61.019,1797.22
61.223,1653.92
61.427,1580.24
61.631,1575.96
61.835,1561.47
62.039,1497.82
62.243,1541.33
62.447,1445.28
62.651,1470.542
62.855,1502.83
63.059,1562.74
63.263,1600.69
63.467,1467.71
63.671,1479.21
63.875,1492.26
64.079,1522.42
64.283,1452.25
64.487,1449.79
64.691,1519.57
64.895,1609.36
65.099,1659.1
65.303,1749.34
65.507,1840.85
65.711,1756.63
65.915,1580.25
66.119,1654.54
66.323,1602.62
66.527,1575.128
66.731,1571.51
66.935,1553.404
67.139,1556.13
67.343,1484.148
67.547,1555.79
67.751,1541.37
67.955,1583.4
68.159,1540.84
68.363,1546.52
68.567,1646.63
68.771,1619.03
68.975,1734.57
69.179,1818.27
69.383,1928.06
69.587,2143.51
69.791,2176.36
69.995,2031.26
70.199,2044.273
70.403,1903
70.607,1952.18
70.811,1926.17
71.015,1908.48
71.219,1941.01
71.423,1881.438
71.627,1975.06
71.831,1945.44
72.035,2130.27
72.239,2073.46
72.443,2023.71
72.647,2111.68
72.851,2073.72
73.055,1962.69
73.259,1847.24
73.463,1801.82
73.667,1833.86
73.871,1745.22
74.075,1641.47
74.279,1707.44
74.483,1647.43
74.687,1615.32
74.891,1588.59
75.095,1606.63
75.299,1569.08
75.503,1639.84
75.707,1630.35
75.911,1684.29
76.115,1684.31
76.319,1705.239
76.523,1628.97
76.727,1667.08
76.931,1787.32
77.135,1948.23
77.339,1996.69
77.543,1868.94
77.747,1790.61
77.951,1774.713
78.155,1813.39
78.359,1800.81
78.563,1744.16
78.767,1753.1
78.971,1623.43
79.175,1644.11
79.379,1593.43
79.583,1572.88
79.787,1617.43
79.974,1721.73