File: data/xrd_icdd_PDF/00-059-0840 (PD3).csv
5,188
5.46,112
5.92,172
6.38,132
6.84,142
7.3,159
7.76,174
8.22,151
8.68,151
9.14,137
9.6,128
10.06,166
10.52,172
10.98,154
11.44,166
11.9,151
12.36,132
12.82,156
13.28,180
13.74,156
14.2,177
14.66,190
15.12,279
15.58,216
16.04,139
16.5,154
16.96,250
17.42,185
17.88,174
18.34,262
18.8,240
19.26,210
19.72,328
20.18,199
20.64,169
21.1,156
21.56,144
22.02,149
22.48,199
22.94,166
23.4,154
23.86,169
24.32,166
24.78,292
25.24,164
25.7,1109
26.16,246
26.62,174
27.08,246
27.54,369
28,4070
28.46,520
28.92,1069
29.38,210
29.84,106
30.3,123
30.76,350
31.22,243
31.68,139
32.14,222
32.6,204
33.06,137
33.52,734
33.98,207
34.44,231
34.9,762
35.36,317
35.82,166
36.28,328
36.74,96
37.2,243
37.66,132
38.12,108
38.58,128
39.04,98
39.5,174
39.96,313
40.42,1156
40.88,493
41.34,1190
41.8,317
42.26,139
42.72,188
43.18,100
43.64,502
44.1,156
44.56,745
45.02,237
45.48,90
45.94,433
46.4,161
46.86,388
47.32,384
47.78,128
48.24,292
48.7,484
49.16,108
49.62,225
50.08,130
50.54,180
51,234
51.46,502
51.92,172
52.38,154
52.84,324
53.3,269
53.76,253
54.22,121
54.68,497
55.14,182
55.6,266
56.06,807
56.52,172
56.98,467
57.44,237
57.9,331
58.36,272
58.82,428
59.28,231
59.74,317
60.2,400
60.66,493
61.12,256
61.58,202
62.04,350
62.5,282
62.96,225
63.42,156
63.88,169
64.34,202
64.8,253
65.26,77
65.72,119
66.18,172
66.64,193
67.1,174
67.56,313
68.02,193
68.48,119
68.94,282
69.4,149
69.86,135
70.32,188
70.78,306
71.24,276
71.7,159
72.16,552
72.62,357
73.08,144
73.54,130
74,137
74.46,149
74.92,144
75.38,225
75.84,185
76.3,276
76.76,154
77.22,121
77.68,204
78.14,204
78.6,193
79.06,130
79.52,188
79.98,262
80.44,380
80.9,213
81.36,317
81.82,306
82.28,196
82.74,177
83.2,243
83.66,177
84.12,172
84.58,190
85.04,237
85.5,193
85.96,130
86.42,144
86.88,272
87.34,219
87.8,222
88.26,139
88.72,119
89.18,149
89.64,222
90.1,292
90.56,350
91.02,328
91.48,237
91.94,246
92.4,190
92.86,286
93.32,246
93.78,199
94.24,228
94.7,228
95.16,139
95.62,161
96.08,139
96.54,225
97,202
97.46,144
97.92,166
98.38,149
98.84,164
99.3,139
99.76,130
100.22,139
100.68,196
101.14,164
101.6,188
102.06,228
102.52,164
102.98,125
103.44,159
103.9,139
104.36,130
104.82,114
105.28,135
105.74,185
106.2,193
106.66,154
107.12,149
107.58,106
108.04,125
108.5,156
108.96,207
109.42,144
109.88,146
110.34,96
110.8,142
111.26,121
111.72,156
112.18,177
112.64,149
113.1,117
113.56,128
114.02,146
114.48,125
114.94,125
115.4,151
115.86,159
116.32,196
116.78,196
117.24,219
117.7,213
118.16,320
118.62,216
119.08,125
119.54,199
120,174
120.46,188
120.92,228
121.38,240
121.84,164
122.3,199
122.76,169
123.22,149
123.68,96
124.14,135
124.6,132
125.06,169
125.52,213
125.98,169
126.44,164
126.9,196
127.36,169
127.82,166
128.28,146
128.74,139
129.2,193
129.66,185
130.12,161
130.58,121
131.04,137
131.5,185
131.96,161
132.42,161
132.88,159
133.34,151
133.8,166
134.26,199
134.72,149
135.18,185
135.64,154
136.1,202
136.56,182
137.02,193
137.48,174
137.94,164
138.4,174
138.86,199
139.32,204
139.78,216
139.88,169