File: data/xrd_icdd_PDF/00-067-0510 (PD3).csv
3.88125,3838.19
4.38125,3609.28
4.88125,3404.3
5.38125,3369.64
5.88125,3131.44
6.38125,3053.77
6.88125,2810.231
7.38125,2886.22
7.88125,2706
8.38125,2625.12
8.88125,2575.43
9.38125,2655.58
9.88125,2512.6
10.38125,2482.997
10.88125,2389.73
11.38125,4781.63
11.88125,2695.77
12.38125,2219.14
12.88125,2389.53
13.38125,2438.23
13.88125,2149.27
14.38125,2307.43
14.88125,2194.45
15.38125,2280.93
15.88125,2159.26
16.38125,2227.53
16.88125,2151.68
17.38125,2254.13
17.88125,2033.65
18.38125,2132.15
18.88125,2108.29
19.38125,2159.63
19.88125,2040.82
20.38125,2130.58
20.88125,2064.23
21.38125,2111.48
21.88125,2054.76
22.38125,2742.36
22.88125,1956.1
23.38125,2031.63
23.88125,1989.47
24.38125,1989.3
24.88125,2045.68
25.38125,2069.29
25.88125,2052.49
26.38125,2049.84
26.88125,2498.9
27.38125,4205.13
27.88125,2737.87
28.38125,2026.27
28.88125,2011.09
29.38125,2075.18
29.88125,2329.61
30.38125,2063.22
30.88125,2281.78
31.38125,4830.21
31.88125,2036.48
32.38125,2045.67
32.88125,1989.35
33.38125,1944.12
33.88125,2045.54
34.38125,2124.59
34.88125,2127.93
35.38125,3680.79
35.88125,28114.7
36.38125,5920.98
36.88125,7809.18
37.38125,2390.72
37.88125,14918.8
38.38125,2371.54
38.88125,2498.04
39.38125,19526.5
39.88125,3114.31
40.38125,2090.52
40.88125,2100.35
41.38125,2036.49
41.88125,2033.21
42.38125,2134.72
42.88125,2060.17
43.38125,4161.47
43.88125,2644.7
44.38125,17931.1
44.88125,3529.37
45.38125,7513.54
45.88125,2788.89
46.38125,4988.49
46.88125,2369.14
47.38125,2783.42
47.88125,7713.66
48.38125,3080.66
48.88125,2038.6
49.38125,2184.25
49.88125,2424.12
50.38125,2094.56
50.88125,6714
51.38125,2096.08
51.88125,2003.5
52.38125,2079.33
52.88125,3379.75
53.38125,1996.5
53.88125,2027.47
54.38125,2247.75
54.88125,2107.95
55.38125,3115.03
55.88125,4038.5
56.38125,4957.33
56.88125,5336.76
57.38125,2151.04
57.88125,2261.42
58.38125,3441.88
58.88125,4211.52
59.38125,3223.18
59.88125,7349.28
60.38125,2823.38
60.88125,2619.46
61.38125,2235.8
61.88125,2610.29
62.38125,3209.16
62.88125,2130.85
63.38125,2252.43
63.88125,3747.53
64.38125,4800.01
64.88125,7214.34
65.38125,5741.31
65.88125,3223.63
66.38125,2892.98
66.88125,2198.54
67.38125,2822.96
67.88125,2808.96
68.38125,2214.55
68.88125,3125.95
69.38125,5573.52
69.88125,2326.8
70.38125,2241.91
70.88125,2316.48
71.38125,2937.51
71.88125,5448.38
72.38125,2281.08
72.88125,2360.43
73.38125,6575.47
73.88125,6560.97
74.38125,6920.94
74.88125,5233.62
75.38125,2532.52
75.88125,9918.82
76.38125,5124.8
76.88125,3895.953
77.38125,3592.3
77.88125,3827.94
78.38125,6147.84
78.88125,2206.61
79.38125,2433
79.88125,2573.09
80.38125,2033.96
80.88125,2979.85
81.38125,2126.81
81.88125,2335.27
82.38125,2316.57
82.88125,2766.83
83.38125,6458.75
83.88125,3439.88
84.38125,7316.74
84.88125,2399.82
85.38125,2179.25
85.88125,2555.63
86.38125,4677.13
86.88125,2167.99
87.38125,2381.37
87.88125,2233.16
88.38125,2063.89
88.88125,2916.86
89.38125,2945.11
89.88125,2302.91
90.38125,2941.75
90.88125,3212
91.38125,4074.08
91.88125,3001.6
92.38125,3089.29
92.88125,3365.18
93.38125,3291.29
93.88125,3999.91
94.38125,2791.04
94.88125,4419.73
95.38125,3870.77
95.88125,2517.34
96.38125,2761.23
96.88125,2720.05
97.38125,6429.47
97.88125,12906.2
98.38125,3706.45
98.88125,2986.11
99.38125,5524.13
99.88125,8676.71
100.381,3092.98
100.881,2838.27
101.381,2997.56
101.881,3006.66
102.381,4451.7
102.881,2855.14
103.381,2766.95
103.881,5895.598
104.381,6324.77
104.881,5912.86
105.381,4948.37
105.881,4407.86
106.381,4301.68
106.881,3397.05
107.381,5284.59
107.881,6073.13
108.381,4333.06
108.881,3596.46
109.381,4008.83
109.881,4003.01
110.381,7584.9
110.881,2924.64
111.381,2624.25
111.881,2886.4
112.381,3136.66
112.881,4921.77
113.381,3436.33
113.881,2798.99
114.381,3509.38
114.881,2690.06
115.381,3980.24
115.881,4434.9
116.381,3351.11
116.881,3922.34
117.381,3451.76
117.881,6878.08
118.381,4495.05
118.881,3636.59
119.381,6408.61
119.881,6240.52
120.381,3857.4
120.881,3015.02
121.381,2897.87
121.881,3692.08
122.381,4965.8
122.881,2972.88
123.381,3009.78
123.881,3497.78
124.381,3682.77
124.881,5801.63
125.381,4752.46
125.881,9179.7
126.381,4079.59
126.881,3005.68
127.381,2803.84
127.881,2922.62
128.381,2870.52
128.881,3039.7
129.381,3354.51
129.881,3413.68
130.381,5392.98
130.881,7515.29
131.381,3882.43
131.881,3091.44
132.381,3642.44
132.881,3660.14
133.381,3306.51
133.881,4265.27
134.381,6115.22
134.881,6058.28
135.381,3528.52
135.881,3498.63
136.381,3014.38
136.881,3866.66
137.381,3261.11
137.881,4110.25
138.381,3821.1
138.881,3647.63
139.381,3988.55
139.881,3023.14
140.381,2977
140.881,2893.44
141.381,2905.96
141.881,3001.47
142.381,3034.57
142.881,3410.45
143.381,3339.78
143.881,4311.53
144.381,5771.32
144.881,3715.69
145.381,3226.93
145.881,3078.53
146.381,3014.66
146.881,3484.07
147.381,3970.98
147.881,3939.91
148.381,4033.55
148.881,4219.13
149.381,4909.8
149.681,4239.97