File: data/xrd_icdd_PDF/00-060-0507 (PD3).csv
5.011,18672
5.368,18081
5.725,17200
6.082,16064
6.439,15872
6.796,15532
7.153,14562
7.51,14054
7.867,13974
8.224,13469
8.581,13258
8.938,13609
9.295,19453
9.652,117583
10.009,14841
10.366,12724
10.723,11988
11.08,11543
11.437,11085
11.794,10836
12.151,10572
12.508,10348
12.865,10235
13.222,9904
13.579,9854
13.936,9716
14.293,9559
14.65,9340
15.007,9289
15.364,8978
15.721,9107
16.078,8887
16.435,8872
16.792,8780
17.149,8753
17.506,8867
17.863,8508
18.22,8594
18.577,8739
18.934,11190
19.291,41628
19.648,29634
20.005,10476
20.362,9580
20.719,9189
21.076,8999
21.433,8511
21.79,8395
22.147,8140
22.504,8269
22.861,9622
23.218,23763
23.575,37237
23.932,9296
24.289,8566
24.646,8460
25.003,8365
25.36,8102
25.717,7923
26.074,7817
26.431,8262
26.788,9035
27.145,40079
27.502,15041
27.859,8479
28.216,7850
28.573,7878
28.93,7877
29.287,17707
29.644,8653
30.001,7519
30.358,7283
30.715,7201
31.072,7050
31.429,7174
31.786,7316
32.143,8197
32.5,68006
32.857,46303
33.214,9759
33.571,30279
33.928,22720
34.285,13756
34.642,7920
34.999,7643
35.356,7490
35.713,7275
36.07,7069
36.427,6888
36.784,7274
37.141,7249
37.498,7249
37.855,7922
38.212,29464
38.569,14700
38.926,7940
39.283,10053
39.64,55359
39.997,7852
40.354,7076
40.711,6879
41.068,6714
41.425,6603
41.782,7238
42.139,6519
42.496,6576
42.853,6502
43.21,6550
43.567,6442
43.924,6538
44.281,7339
44.638,7979
44.995,6406
45.352,6402
45.709,6533
46.066,6381
46.423,7156
46.78,80815
47.137,9303
47.494,6801
47.851,8882
48.208,6772
48.565,6355
48.922,6486
49.279,6614
49.636,7276
49.993,44968
50.35,8268
50.707,21342
51.064,29313
51.421,10589
51.778,8284
52.135,24115
52.492,11672
52.849,21277
53.206,30457
53.563,7639
53.92,6867
54.277,6622
54.634,8227
54.991,13904
55.348,18475
55.705,6971
56.062,7768
56.419,10727
56.776,6890
57.133,6710
57.49,6573
57.847,6514
58.204,7029
58.561,10334
58.918,20136
59.275,27351
59.632,6983
59.989,6631
60.346,6655
60.703,8355
61.06,31379
61.417,7577
61.774,6444
62.131,6623
62.488,6914
62.845,33452
63.202,8403
63.559,6387
63.916,6312
64.273,6484
64.63,6165
64.987,5923
65.344,5867
65.701,5915
66.058,5885
66.415,6074
66.772,6435
67.129,6079
67.486,6073
67.843,7665
68.2,10478
68.557,8030
68.914,10068
69.271,6762
69.628,6803
69.985,6650
70.342,6882
70.699,10829
71.056,20104
71.413,39817
71.77,27832
72.127,13350
72.484,10497
72.841,7571
73.198,7947
73.555,10140
73.912,6597
74.269,6551
74.626,6547
74.983,10278
75.34,7493
75.697,7952
76.054,6532
76.411,7902
76.768,6455
77.125,6236
77.482,12066
77.839,8458
78.196,9840
78.553,10980
78.91,7003
79.267,6151
79.624,6116
79.981,6401
80.338,7305
80.695,7654
81.052,10010
81.409,12364
81.766,12595
82.123,9948
82.48,8819
82.837,6394
83.194,9002
83.551,7082
83.908,6135
84.265,5996
84.622,6543
84.979,7735
85.336,6992
85.693,6193
86.05,6071
86.407,6067
86.764,5996
87.121,5934
87.478,6115
87.835,5916
88.192,5981
88.549,6020
88.906,8782
89.263,8089
89.62,15490
89.977,25560
90.334,13435
90.691,13339
91.048,13292
91.405,10222
91.762,6645
92.119,8658
92.476,7092
92.833,7289
93.19,6549
93.547,6791
93.904,7438
94.261,7969
94.618,6948
94.975,6313
95.332,6249
95.689,6295
96.046,10573
96.403,11505
96.76,8181
97.117,10158
97.474,7467
97.831,6785
98.188,8699
98.545,10840
98.902,9929
99.259,7650
99.616,6512
99.973,6145
100.33,6171
100.687,6188
101.044,6661
101.401,7427
101.758,6803
102.115,6463
102.472,6096
102.829,6221
103.186,6809
103.543,6350
103.9,6140
104.257,5998
104.614,6182
104.971,6958
105.328,7267
105.685,6834
106.042,6508
106.399,6475
106.756,6323
107.113,6741
107.47,7776
107.827,12414
108.184,20164
108.541,17545
108.898,14722
109.255,9547
109.612,9963
109.969,7922
110.003,8040