File: data/xrd_icdd_PDF/00-073-0248 (PD3).csv
4.99911,0.00241
5.304,0.10504
5.60889,0.14247
5.91378,0.262
6.21867,0.30064
6.52356,0.43104
6.82845,0.45157
7.13334,0.58559
7.43823,0.66527
7.74312,0.7341
8.04801,0.81741
8.3529,0.92486
8.65779,0.87415
8.96268,1.03957
9.26757,1.04802
9.57246,1.09994
9.87735,1.10235
10.18224,1.04077
10.48713,1.07096
10.79202,0.99972
11.09691,1.08545
11.4018,1.05768
11.70669,1.06734
12.01158,1.14582
12.31647,1.12167
12.62136,1.07458
12.92625,1.13374
13.23114,1.11805
13.53603,1.08303
13.84092,1.15306
14.14581,1.05285
14.4507,1.09028
14.75559,1.04802
15.06048,1.0444
15.36537,1.11925
15.67026,1.04681
15.97515,0.99248
16.28004,1.03957
16.58493,1.04681
16.88982,0.93815
17.19471,0.95143
17.4996,1.03111
17.80449,1.01421
18.10938,0.94418
18.41427,0.98403
18.71916,0.96109
19.02405,0.89709
19.32894,0.9635
19.63383,0.90555
19.93872,0.92728
20.24361,0.77998
20.5485,0.92969
20.85339,0.90917
21.15828,0.90796
21.46317,0.84638
21.76806,0.89106
22.07295,0.90917
22.37784,0.91279
22.68273,0.88985
22.98762,0.86208
23.29251,0.8983
23.5974,0.95263
23.90229,0.85604
24.20718,1.08303
24.51207,0.85121
24.81696,0.78964
25.12185,0.88985
25.42674,0.84276
25.73163,0.82465
26.03652,0.77273
26.34141,0.79809
26.6463,0.8488
26.95119,0.79809
27.25608,0.82344
27.56097,1.03353
27.86586,0.88502
28.17075,0.84155
28.47564,0.77756
28.78053,0.7836
29.08542,0.82948
29.39031,0.78843
29.6952,0.87778
30.00009,0.75341
30.30498,0.84759
30.60987,0.84759
30.91476,0.84518
31.21965,0.83672
31.52454,0.90192
31.82943,0.87898
32.13432,0.90796
32.43921,0.8983
32.7441,0.90072
33.04899,1.31727
33.35387,0.97437
33.65876,0.97437
33.96365,0.99731
34.26854,1.03594
34.57343,1.1096
34.87832,1.2581
35.18321,12.35889
35.4881,1.67224
35.79299,1.34262
36.09788,1.4199
36.40277,1.13495
36.70766,1.14219
37.01255,1.22309
37.31744,1.13012
37.62233,1.18687
37.92722,2.43411
38.23211,1.13012
38.537,1.17117
38.84189,1.22309
39.14678,1.06854
39.45167,1.08183
39.75656,1.36315
40.06145,1.39213
40.36634,1.4211
40.67123,1.85576
40.97612,3.70549
41.28101,53.91498
41.5859,2.14192
41.89079,2.38702
42.19568,11.92785
42.50057,1.42955
42.80546,1.37522
43.11035,1.31123
43.41524,1.44284
43.72013,1.25207
44.02502,1.18445
44.32991,1.25448
44.6348,1.18566
44.93969,1.18325
45.24458,1.15427
45.54947,1.14702
45.85436,1.12771
46.15925,1.11442
46.46414,1.15306
46.76903,1.20136
47.07392,1.18083
47.37881,1.1434
47.6837,1.16151
47.98859,1.07096
48.29348,1.12408
48.59837,1.11805
48.90326,1.10477
49.20815,1.18325
49.51304,1.21343
49.81793,1.13495
50.12282,1.20136
50.42771,1.68794
50.7326,1.11322
51.03749,1.13616
51.34238,1.06371
51.64727,0.99006
51.95216,1.08786
52.25705,0.99369
52.56194,0.97316
52.86683,0.96592
53.17172,0.9961
53.47661,1.01783
53.7815,1.1591
54.08639,1.21705
54.39128,0.99731
54.69617,0.9792
55.00106,1.00455
55.30595,0.99489
55.61084,1.08545
55.91573,4.41423
56.22062,3.00762
56.52551,1.06492
56.8304,0.99369
57.13529,1.21102
57.44018,0.90313
57.74507,0.9309
58.04996,0.92607
58.35485,0.87536
58.65974,0.85966
58.96463,0.95022
59.26952,0.89468
59.57441,0.90434
59.8793,0.87898
60.18419,0.89951
60.48908,0.87778
60.79397,0.85725
61.09886,0.8814
61.40375,0.87536
61.70864,0.8657
62.01353,0.85363
62.31842,0.91038
62.62331,0.90072
62.9282,1.19894
63.23309,18.04571
63.53798,1.24362
63.84287,0.92366
64.14776,0.87295
64.45265,0.80654
64.75754,0.81741
65.06243,1.04681
65.36732,0.84276
65.67221,0.73168
65.9771,0.81016
66.28199,0.76428
66.58688,0.78239
66.89177,0.70874
67.19666,0.7679
67.50155,0.73772
67.80644,0.74979
68.11133,0.73893
68.41622,0.64596
68.72111,0.71961
69.026,0.73893
69.33089,0.75462
69.63578,0.67735
69.94067,0.70029
70.24556,0.71719
70.55045,0.84397
70.85534,0.67614
71.16023,0.61215
71.46512,0.60853
71.77001,0.62422
72.0749,0.66648
72.37979,0.63871
72.68468,0.63267
72.98957,0.58076
73.29446,0.66165
73.59935,0.57593
73.90424,0.56385
74.20913,0.60611
74.51402,1.6336
74.81891,0.64113
75.1238,0.66407
75.42869,0.60007
75.73358,0.64837
76.03847,0.83189
76.34336,4.3104
76.64825,0.91762
76.95314,0.59042
77.25803,0.57351
77.56292,0.56627
77.86781,0.64596
78.1727,1.48389
78.47759,2.87963
78.78248,2.35925
79.08737,3.74292
79.39226,0.5711
79.69715,0.50711
80.00204,0.46847
80.30693,0.46605
80.61182,0.42862
80.91671,0.42138
81.2216,0.3912
81.52649,0.41051
81.83138,0.36826
82.13627,0.38395
82.44116,0.34894
82.74605,0.34169
83.05094,0.33928
83.35583,0.32479
83.66072,0.2934
83.96561,0.28374
84.2705,0.33928
84.57539,0.262
84.88028,0.33566
85.18517,0.30185
85.49006,0.28495
85.79495,0.25114
86.09984,0.2451
86.40473,0.26442
86.70962,0.22337
87.01451,0.22337
87.3194,0.23061
87.62429,0.2282
87.92918,0.21492
88.23407,0.21371
88.53896,0.16541
88.84385,0.18835
89.14874,0.20163
89.45363,0.94539
89.75851,0.46847
90.01259,0.15575