File: data/xrd_icdd_PDF/00-062-0348 (PD3).csv
10,120
10.38,118
10.76,116
11.14,114
11.52,105
11.9,104
12.28,118
12.66,114
13.04,102
13.42,104
13.8,88
14.18,98
14.56,91
14.94,94
15.32,96
15.7,98
16.08,81
16.46,99
16.84,98
17.22,90
17.6,76
17.98,76
18.36,90
18.74,90
19.12,85
19.5,82
19.88,72
20.26,81
20.64,82
21.02,80
21.4,77
21.78,61
22.16,74
22.54,68
22.92,59
23.3,56
23.68,58
24.06,55
24.44,556
24.82,60
25.2,40
25.58,42
25.96,34
26.34,36
26.72,39
27.1,42
27.48,36
27.86,34
28.24,42
28.62,26
29,30
29.38,40
29.76,50
30.14,196
30.52,2761
30.9,252
31.28,64
31.66,1046
32.04,37
32.42,28
32.8,28
33.18,316
33.56,46
33.94,26
34.32,30
34.7,22
35.08,14
35.46,19
35.84,14
36.22,15
36.6,12
36.98,20
37.36,17
37.74,64
38.12,478
38.5,226
38.88,20
39.26,19
39.64,14
40.02,13
40.4,11
40.78,12
41.16,16
41.54,32
41.92,91
42.3,14
42.68,17
43.06,12
43.44,14
43.82,16
44.2,20
44.58,22
44.96,50
45.34,1594
45.72,31
46.1,20
46.48,18
46.86,17
47.24,18
47.62,80
48,102
48.38,16
48.76,25
49.14,20
49.52,14
49.9,22
50.28,27
50.66,22
51.04,18
51.42,15
51.8,20
52.18,161
52.56,36
52.94,116
53.32,1811
53.7,52
54.08,33
54.46,26
54.84,30
55.22,74
55.6,1438
55.98,192
56.36,28
56.74,20
57.12,17
57.5,14
57.88,26
58.26,53
58.64,16
59.02,12
59.4,14
59.78,12
60.16,18
60.54,9
60.92,101
61.3,20
61.68,14
62.06,16
62.44,12
62.82,12
63.2,121
63.58,32
63.96,16
64.34,26
64.72,152
65.1,10
65.48,18
65.86,138
66.24,153
66.62,20
67,12
67.38,8
67.76,35
68.14,174
68.52,20
68.9,21
69.28,261
69.66,16
70.04,16
70.42,10
70.8,8
71.18,11
71.56,46
71.94,27
72.32,58
72.7,16
73.08,16
73.46,16
73.84,58
74.22,78
74.6,268
74.98,262
75.36,34
75.74,27
76.12,78
76.5,68
76.88,29
77.26,15
77.64,16
78.02,12
78.4,16
78.78,197
79.16,42
79.54,12
79.92,15
80.3,14
80.68,14
81.06,37
81.44,89
81.82,26
82.2,48
82.58,123
82.96,19
83.34,22
83.72,13
84.1,12
84.48,15
84.86,12
85.24,21
85.62,63
86,61
86.38,26
86.76,194
87.14,31
87.52,19
87.9,16
88.28,15
88.66,20
89.04,35
89.42,79
89.8,396
90.18,70
90.56,21
90.94,51
91.32,45
91.7,166
92.08,37
92.46,15
92.84,16
93.22,18
93.6,27
93.98,22
94.36,21
94.74,22
95.12,98
95.5,74
95.88,16
96.26,29
96.64,14
97.02,11
97.4,12
97.78,16
98.16,16
98.54,32
98.92,21
99.3,54
99.68,74
100.06,30
100.44,25
100.82,86
101.2,40
101.58,13
101.96,16
102.34,26
102.72,45
103.1,27
103.48,18
103.86,84
104.24,44
104.62,16
105,12
105.38,14
105.76,18
106.14,20
106.52,14
106.9,14
107.28,22
107.66,26
108.04,62
108.42,76
108.8,255
109.18,158
109.56,92
109.94,41
110.32,26
110.7,42
111.08,73
111.46,32
111.84,23
112.22,30
112.6,88
112.98,82
113.36,88
113.74,53
114.12,27
114.5,14
114.88,16
115.26,20
115.64,22
116.02,60
116.4,32
116.78,20
117.16,16
117.54,16
117.92,22
118.3,18
118.68,92
119.06,76
119.44,83
119.82,24
120.02,20