File: data/xrd_icdd_PDF/00-063-0553 (PD3).csv
6,2383
6.36,2336
6.72,2380
7.08,2378
7.44,2164
7.8,2281
8.16,2171
8.52,2095
8.88,2090
9.24,2088
9.6,2248
9.96,2027
10.32,1871
10.68,1827
11.04,2002
11.4,1810
11.76,1911
12.12,1908
12.48,1817
12.84,1785
13.2,1762
13.56,1634
13.92,1697
14.28,1709
14.64,1622
15,1707
15.36,1677
15.72,1731
16.08,1727
16.44,1578
16.8,1672
17.16,1617
17.52,1624
17.88,1598
18.24,1516
18.6,1593
18.96,1585
19.32,2915
19.68,1541
20.04,1469
20.4,1420
20.76,1507
21.12,1470
21.48,1388
21.84,1446
22.2,1401
22.56,1323
22.92,1299
23.28,1278
23.64,1277
24,1286
24.36,1283
24.72,1268
25.08,1225
25.44,1230
25.8,1272
26.16,1206
26.52,1141
26.88,6322
27.24,1121
27.6,1145
27.96,1051
28.32,1140
28.68,1123
29.04,1750
29.4,1189
29.76,1045
30.12,1006
30.48,1087
30.84,1025
31.2,969
31.56,1013
31.92,1296
32.28,5177
32.64,1680
33,1157
33.36,1034
33.72,1079
34.08,969
34.44,1271
34.8,6927
35.16,1112
35.52,1039
35.88,1011
36.24,915
36.6,924
36.96,915
37.32,1139
37.68,2220
38.04,12604
38.4,1163
38.76,993
39.12,2992
39.48,1000
39.84,879
40.2,798
40.56,827
40.92,878
41.28,896
41.64,871
42,894
42.36,1490
42.72,2443
43.08,1096
43.44,1168
43.8,2063
44.16,3798
44.52,915
44.88,887
45.24,811
45.6,805
45.96,710
46.32,723
46.68,729
47.04,736
47.4,738
47.76,768
48.12,1140
48.48,925
48.84,802
49.2,737
49.56,722
49.92,737
50.28,684
50.64,679
51,668
51.36,748
51.72,3821
52.08,769
52.44,711
52.8,626
53.16,658
53.52,729
53.88,660
54.24,698
54.6,914
54.96,606
55.32,637
55.68,678
56.04,683
56.4,674
56.76,632
57.12,748
57.48,854
57.84,3062
58.2,669
58.56,688
58.92,756
59.28,2477
59.64,813
60,698
60.36,1000
60.72,677
61.08,697
61.44,2164
61.8,825
62.16,636
62.52,635
62.88,649
63.24,682
63.6,672
63.96,657
64.32,666
64.68,702
65.04,657
65.4,809
65.76,1724
66.12,961
66.48,681
66.84,654
67.2,668
67.56,927
67.92,2150
68.28,731
68.64,663
69,635
69.36,658
69.72,744
70.08,1371
70.44,1132
70.8,704
71.16,650
71.52,649
71.88,755
72.24,711
72.6,615
72.96,598
73.32,813
73.68,603
74.04,615
74.4,935
74.76,592
75.12,635
75.48,1012
75.84,581
76.2,569
76.56,625
76.92,631
77.28,644
77.64,637
78,612
78.36,751
78.72,695
79.08,663
79.44,768
79.8,606
80.16,823
80.52,723
80.88,707
81.24,2786
81.6,656
81.96,568
82.32,580
82.68,575
83.04,625
83.4,1191
83.76,736
84.12,990
84.48,706
84.84,557
85.2,580
85.56,534
85.92,555
86.28,575
86.64,555
87,621
87.36,764
87.72,627
88.08,700
88.44,2913
88.8,682
89.16,593
89.52,624
89.88,539
90.24,551
90.6,566
90.96,625
91.32,510
91.68,580
92.04,518
92.4,711
92.76,554
93.12,739
93.48,581
93.84,554
94.2,504
94.56,582
94.92,648
95.28,794
95.64,640
96,571
96.36,740
96.72,670
97.08,587
97.44,1172
97.8,655
98.16,757
98.52,828
98.88,580
99.24,543
99.6,468
99.96,493
100.32,596
100.68,517
101.04,678
101.4,561
101.76,538
102.12,937
102.48,926
102.84,546
103.2,536
103.56,549
103.92,484
104.28,543
104.64,478
105,510
105.36,781
105.72,501
106.08,480
106.44,460
106.8,507
107.16,551
107.52,504
107.88,453
108.24,654
108.6,506
108.96,483
109.32,476
109.68,517
110.04,481
110.4,594
110.625,541