File: data/xrd_icdd_PDF/00-059-0269 (PD3).csv
5,1376
5.4,1252
5.8,1211
6.2,1232
6.6,1220
7,1208
7.4,1233
7.8,1222
8.2,1233
8.6,1207
9,1242
9.4,1215
9.8,1208
10.2,1202
10.6,1206
11,1207
11.4,1246
11.8,1251
12.2,1289
12.6,1182
13,1172
13.4,1171
13.8,1132
14.2,1120
14.6,1127
15,1106
15.4,1140
15.8,1135
16.2,1085
16.6,1103
17,1082
17.4,1083
17.8,1080
18.2,1097
18.6,1079
19,1064
19.4,1035
19.8,1027
20.2,1018
20.6,1009
21,991
21.4,1009
21.8,1035
22.2,1012
22.6,957
23,984
23.4,2781
23.8,969
24.2,927
24.6,885
25,855
25.4,855
25.8,863
26.2,760
26.6,814
27,893
27.4,834
27.8,747
28.2,737
28.6,759
29,762
29.4,869
29.8,983
30.2,5632
30.6,971
31,651
31.4,590
31.8,581
32.2,581
32.6,671
33,722
33.4,741
33.8,629
34.2,613
34.6,664
35,679
35.4,592
35.8,1373
36.2,1439
36.6,498
37,477
37.4,564
37.8,611
38.2,635
38.6,579
39,502
39.4,612
39.8,550
40.2,431
40.6,514
41,530
41.4,544
41.8,536
42.2,485
42.6,433
43,522
43.4,1700
43.8,586
44.2,390
44.6,480
45,439
45.4,1093
45.8,468
46.2,527
46.6,341
47,432
47.4,438
47.8,906
48.2,334
48.6,385
49,483
49.4,477
49.8,1649
50.2,503
50.6,373
51,326
51.4,322
51.8,314
52.2,347
52.6,307
53,375
53.4,381
53.8,468
54.2,316
54.6,346
55,297
55.4,326
55.8,302
56.2,417
56.6,314
57,269
57.4,399
57.8,299
58.2,287
58.6,388
59,334
59.4,388
59.8,331
60.2,328
60.6,399
61,3133
61.4,436
61.8,322
62.2,458
62.6,695
63,553
63.4,275
63.8,287
64.2,403
64.6,1102
65,370
65.4,293
65.8,265
66.2,286
66.6,262
67,242
67.4,308
67.8,587
68.2,311
68.6,337
69,233
69.4,593
69.8,408
70.2,267
70.6,255
71,374
71.4,314
71.8,272
72.2,291
72.6,362
73,429
73.4,308
73.8,262
74.2,661
74.6,1136
75,275
75.4,291
75.8,356
76.2,450
76.6,251
77,251
77.4,208
77.8,237
78.2,208
78.6,217
79,193
79.4,243
79.8,210
80.2,214
80.6,379
81,310
81.4,234
81.8,242
82.2,231
82.6,205
83,187
83.4,178
83.8,255
84.2,204
84.6,189
85,242
85.4,236
85.8,248
86.2,255
86.6,260
87,382
87.4,284
87.8,245
88.2,281
88.6,368
89,195
89.4,258
89.8,447
90.2,616
90.6,269
91,208
91.4,202
91.8,227
92.2,236
92.6,260
93,488
93.4,349
93.8,195
94.2,281
94.6,504
95,263
95.4,217
95.8,234
96.2,242
96.6,220
97,211
97.4,249
97.8,628
98.2,284
98.6,258
99,412
99.4,997
99.8,384
100.2,225
100.6,220
101,236
101.4,313
101.8,282
102.2,368
102.6,467
103,302
103.4,231
103.8,210
104.2,213
104.6,223
105,234
105.4,350
105.8,341
106.2,240
106.6,227
107,240
107.4,257
107.8,210
108.2,246
108.6,228
109,252
109.4,225
109.8,198
110.2,192
110.6,210
111,213
111.4,234
111.8,251
112.2,541
112.6,420
113,255
113.4,231
113.8,272
114.2,272
114.6,217
115,251
115.4,599
115.8,403
116.2,254
116.6,208
117,231
117.4,222
117.8,213
118.2,243
118.6,239
119,320
119.4,276
119.8,276
120.02,230