File: data/xrd_icdd_PDF/00-063-0411 (PD3).csv
5,782
5.4,690
5.8,663
6.2,635
6.6,637
7,627
7.4,560
7.8,538
8.2,515
8.6,523
9,494
9.4,511
9.8,485
10.2,483
10.6,443
11,411
11.4,406
11.8,405
12.2,349
12.6,347
13,359
13.4,351
13.8,344
14.2,299
14.6,283
15,287
15.4,302
15.8,298
16.2,258
16.6,255
17,395
17.4,276
17.8,252
18.2,259
18.6,247
19,221
19.4,233
19.8,257
20.2,253
20.6,219
21,230
21.4,185
21.8,203
22.2,228
22.6,218
23,270
23.4,635
23.8,278
24.2,230
24.6,195
25,239
25.4,369
25.8,225
26.2,253
26.6,346
27,1456
27.4,396
27.8,260
28.2,242
28.6,219
29,223
29.4,208
29.8,300
30.2,295
30.6,246
31,273
31.4,267
31.8,288
32.2,325
32.6,348
33,475
33.4,986
33.8,4303
34.2,5200
34.6,2533
35,793
35.4,1582
35.8,522
36.2,463
36.6,384
37,426
37.4,1399
37.8,440
38.2,399
38.6,554
39,2356
39.4,496
39.8,508
40.2,2209
40.6,538
41,1972
41.4,1300
41.8,500
42.2,439
42.6,467
43,1315
43.4,1229
43.8,464
44.2,422
44.6,457
45,1100
45.4,416
45.8,334
46.2,369
46.6,346
47,356
47.4,358
47.8,358
48.2,394
48.6,357
49,353
49.4,397
49.8,375
50.2,382
50.6,447
51,1233
51.4,455
51.8,474
52.2,762
52.6,526
53,445
53.4,430
53.8,436
54.2,803
54.6,470
55,525
55.4,1038
55.8,739
56.2,896
56.6,1345
57,627
57.4,480
57.8,884
58.2,451
58.6,423
59,747
59.4,503
59.8,736
60.2,715
60.6,752
61,784
61.4,678
61.8,432
62.2,411
62.6,406
63,471
63.4,410
63.8,380
64.2,461
64.6,471
65,413
65.4,427
65.8,449
66.2,689
66.6,1065
67,704
67.4,456
67.8,380
68.2,369
68.6,404
69,544
69.4,489
69.8,486
70.2,456
70.6,566
71,422
71.4,387
71.8,424
72.2,739
72.6,778
73,670
73.4,729
73.8,577
74.2,495
74.6,733
75,512
75.4,634
75.8,535
76.2,423
76.6,501
77,628
77.4,605
77.8,594
78.2,536
78.6,433
79,426
79.4,896
79.8,919
80.2,384
80.6,344
81,306
81.4,400
81.8,602
82.2,417
82.6,342
83,353
83.4,362
83.8,319
84.2,333
84.6,336
85,353
85.4,425
85.8,384
86.2,376
86.6,406
87,535
87.4,383
87.8,398
88.2,409
88.6,464
89,403
89.4,538
89.8,693
90.2,650
90.6,582
91,410
91.4,359
91.8,394
92.2,314
92.6,157
93,403
93.4,455
93.8,446
94.2,417
94.6,434
95,572
95.4,423
95.8,373
96.2,394
96.6,418
97,489
97.4,440
97.8,494
98.2,402
98.6,386
99,374
99.4,435
99.8,493
100.2,585
100.6,507
101,447
101.4,471
101.8,483
102.2,451
102.6,444
103,421
103.4,410
103.8,467
104.2,507
104.6,483
105,509
105.4,449
105.8,541
106.2,486
106.6,442
107,446
107.4,440
107.8,452
108.2,459
108.6,424
109,568
109.4,582
109.8,458
110.2,529
110.6,518
111,502
111.4,507
111.8,452
112.2,674
112.6,623
113,493
113.4,450
113.8,536
114.2,529
114.6,486
115,541
115.4,530
115.8,573
116.2,444
116.6,556
117,564
117.4,508
117.8,601
118.2,550
118.6,483
119,503
119.4,484
119.8,480
120.02,399