File: data/xrd_icdd_PDF/00-061-0133 (PD3).csv
5,304
5.4,262
5.8,248
6.2,216
6.6,207
7,174
7.4,169
7.8,147
8.2,147
8.6,147
9,129
9.4,124
9.8,124
10.2,117
10.6,101
11,87
11.4,97
11.8,78
12.2,71
12.6,60
13,69
13.4,69
13.8,60
14.2,83
14.6,53
15,58
15.4,62
15.8,55
16.2,64
16.6,60
17,37
17.4,41
17.8,60
18.2,53
18.6,44
19,58
19.4,46
19.8,51
20.2,41
20.6,39
21,41
21.4,51
21.8,267
22.2,60
22.6,51
23,55
23.4,62
23.8,58
24.2,51
24.6,60
25,51
25.4,55
25.8,69
26.2,66
26.6,78
27,67
27.4,65
27.8,69
28.2,87
28.6,92
29,80
29.4,85
29.8,119
30.2,157
30.6,221
31,5525
31.4,736
31.8,210
32.2,133
32.6,160
33,304
33.4,2105
33.8,853
34.2,283
34.6,165
35,124
35.4,83
35.8,83
36.2,74
36.6,103
37,85
37.4,106
37.8,175
38.2,2203
38.6,202
39,133
39.4,106
39.8,169
40.2,393
40.6,297
41,110
41.4,85
41.8,101
42.2,124
42.6,113
43,116
43.4,109
43.8,136
44.2,345
44.6,938
45,94
45.4,120
45.8,92
46.2,384
46.6,159
47,118
47.4,118
47.8,102
48.2,119
48.6,126
49,128
49.4,115
49.8,138
50.2,97
50.6,92
51,74
51.4,133
51.8,662
52.2,124
52.6,137
53,118
53.4,121
53.8,122
54.2,124
54.6,109
55,136
55.4,110
55.8,131
56.2,140
56.6,527
57,736
57.4,176
57.8,110
58.2,90
58.6,83
59,83
59.4,129
59.8,580
60.2,421
60.6,154
61,150
61.4,1339
61.8,251
62.2,135
62.6,98
63,107
63.4,130
63.8,138
64.2,152
64.6,653
65,138
65.4,117
65.8,230
66.2,304
66.6,110
67,124
67.4,117
67.8,94
68.2,108
68.6,106
69,175
69.4,113
69.8,120
70.2,288
70.6,223
71,106
71.4,97
71.8,109
72.2,99
72.6,97
73,101
73.4,357
73.8,152
74.2,147
74.6,520
75,292
75.4,124
75.8,97
76.2,87
76.6,81
77,103
77.4,306
77.8,163
78.2,81
78.6,152
79,260
79.4,124
79.8,92
80.2,69
80.6,71
81,60
81.4,81
81.8,78
82.2,60
82.6,85
83,253
83.4,115
83.8,81
84.2,83
84.6,115
85,92
85.4,133
85.8,276
86.2,106
86.6,110
87,366
87.4,193
87.8,83
88.2,64
88.6,55
89,71
89.4,74
89.8,133
90.2,58
90.6,101
91,214
91.4,175
91.8,97
92.2,90
92.6,87
93,92
93.4,101
93.8,120
94.2,110
94.6,110
95,345
95.4,465
95.8,154
96.2,115
96.6,101
97,108
97.4,106
97.8,166
98.2,212
98.6,143
99,124
99.4,127
99.8,106
100.2,87
100.6,78
101,110
101.4,101
101.8,235
102.2,230
102.6,133
103,133
103.4,207
103.8,133
104.2,122
104.6,87
105,90
105.4,97
105.8,92
106.2,90
106.6,87
107,110
107.4,193
107.8,294
108.2,212
108.6,133
109,92
109.4,110
109.8,101
110.2,115
110.6,106
111,156
111.4,133
111.8,97
112.2,115
112.6,113
113,87
113.4,115
113.8,115
114.2,90
114.6,152
115,156
115.4,168
115.8,124
116.2,124
116.6,101
117,115
117.4,110
117.8,97
118.2,74
118.6,92
119,92
119.4,120
119.8,140
120.02,74