File: data/xrd_icdd_PDF/00-054-1203 (PD3).csv
3,1322
3.3,1182
3.6,1128
3.9,1065
4.2,1022
4.5,992
4.8,925
5.1,944
5.4,929
5.7,943
6,1060
6.3,1035
6.6,1060
6.9,942
7.2,975
7.5,944
7.8,983
8.1,959
8.4,979
8.7,1070
9,1057
9.3,1092
9.6,1086
9.9,1110
10.2,1105
10.5,1223
10.8,1225
11.1,1306
11.4,1239
11.7,1310
12,1332
12.3,1333
12.6,1275
12.9,1334
13.2,1314
13.5,1520
13.8,2664
14.1,1595
14.4,2650
14.7,1511
15,1330
15.3,1495
15.6,1384
15.9,1455
16.2,1477
16.5,1578
16.8,1811
17.1,5896
17.4,1451
17.7,1436
18,1405
18.3,1395
18.6,1397
18.9,1400
19.2,1370
19.5,1351
19.8,1379
20.1,1378
20.4,1367
20.7,1463
21,1368
21.3,1459
21.6,1367
21.9,1490
22.2,1464
22.5,1410
22.8,1423
23.1,1464
23.4,1466
23.7,1727
24,1402
24.3,1362
24.6,1324
24.9,1335
25.2,1485
25.5,1448
25.8,1849
26.1,1363
26.4,1516
26.7,1531
27,1403
27.3,2064
27.6,1746
27.9,6717
28.2,9027
28.5,1768
28.8,1730
29.1,3779
29.4,2906
29.7,1531
30,1484
30.3,1430
30.6,1503
30.9,1678
31.2,7972
31.5,1626
31.8,1471
32.1,1388
32.4,1437
32.7,1356
33,1381
33.3,1490
33.6,1779
33.9,1606
34.2,1731
34.5,7412
34.8,1568
35.1,1418
35.4,1456
35.7,2363
36,1475
36.3,1954
36.6,1452
36.9,1432
37.2,1412
37.5,2072
37.8,1380
38.1,1576
38.4,1400
38.7,1426
39,1329
39.3,1338
39.6,1396
39.9,1439
40.2,1465
40.5,1528
40.8,1426
41.1,1352
41.4,1748
41.7,1830
42,1427
42.3,1816
42.6,2274
42.9,1451
43.2,1496
43.5,1737
43.8,1980
44.1,1489
44.4,1845
44.7,1976
45,1834
45.3,1523
45.6,1443
45.9,1421
46.2,1462
46.5,1801
46.8,1503
47.1,4344
47.4,1771
47.7,1846
48,1896
48.3,2430
48.6,1526
48.9,2008
49.2,1649
49.5,2357
49.8,1559
50.1,1548
50.4,2293
50.7,1984
51,1652
51.3,2992
51.6,1777
51.9,2657
52.2,1576
52.5,1590
52.8,3119
53.1,1964
53.4,1526
53.7,1454
54,1512
54.3,1523
54.6,1478
54.9,2809
55.2,2220
55.5,1640
55.8,3575
56.1,1640
56.4,1464
56.7,1438
57,1609
57.3,1714
57.6,2761
57.9,2900
58.2,1663
58.5,2695
58.8,1655
59.1,1441
59.4,1408
59.7,1507
60,1531
60.3,1562
60.6,2085
60.9,1535
61.2,1750
61.5,2022
61.8,1548
62.1,1623
62.4,1636
62.7,2349
63,2088
63.3,1578
63.6,2562
63.9,1868
64.2,1598
64.5,1485
64.8,2153
65.1,2505
65.4,1664
65.7,1537
66,1471
66.3,1468
66.6,1460
66.9,1921
67.2,2133
67.5,1739
67.8,1501
68.1,1518
68.4,1848
68.7,2033
69,1533
69.3,1566
69.6,1465
69.9,1594
70.2,1491
70.5,1635
70.8,1515
71.1,1435
71.4,1492
71.7,1446
72,1530
72.3,1452
72.6,1903
72.9,1609
73.2,1469
73.5,2086
73.8,1632
74.1,1541
74.4,1596
74.7,1527
75,1590
75.3,1831
75.6,2107
75.9,1863
76.2,1668
76.5,1960
76.8,1651
77.1,1997
77.4,2043
77.7,2211
78,1779
78.3,1738
78.6,2430
78.9,1917
79.2,1631
79.5,2088
79.8,1867
80.1,1775
80.4,1655
80.7,1616
81,1726
81.3,1952
81.6,1639
81.9,1635
82.2,1516
82.5,1708
82.8,1630
83.1,1540
83.4,1607
83.7,1551
84,1629
84.3,2278
84.6,1945
84.9,1541
85.2,1615
85.5,1611
85.8,1460
86.1,1540
86.4,1577
86.7,1541
87,1659
87.3,1599
87.6,1693
87.9,1626
88.2,1682
88.5,1619
88.8,1608
89.1,1596
89.4,1705
89.7,2157
90,1836