File: data/xrd_icdd_PDF/00-073-0999 (PD3).csv
10.00836,361
10.27574,350
10.54312,305
10.8105,301
11.07788,293
11.34526,340
11.61264,244
11.88002,234
12.1474,213
12.41478,248
12.68216,248
12.94954,222
13.21692,225
13.4843,188
13.75168,192
14.01906,215
14.28645,204
14.55383,216
14.82121,173
15.08859,183
15.35597,186
15.62335,161
15.89073,190
16.15811,205
16.42549,180
16.69287,177
16.96025,190
17.22763,174
17.49501,180
17.76239,174
18.02977,162
18.29715,171
18.56453,176
18.83191,163
19.09929,169
19.36667,165
19.63405,163
19.90143,171
20.16881,159
20.43619,154
20.70357,151
20.97095,169
21.23833,180
21.50571,177
21.77309,358
22.04047,145
22.30785,160
22.57524,153
22.84262,149
23.11,153
23.37738,161
23.64476,165
23.91214,149
24.17952,150
24.4469,168
24.71428,168
24.98166,162
25.24904,157
25.51642,147
25.7838,146
26.05118,136
26.31856,145
26.58594,159
26.85332,153
27.1207,121
27.38808,177
27.65546,158
27.92284,161
28.19022,161
28.4576,140
28.72498,151
28.99236,162
29.25974,129
29.52712,154
29.7945,167
30.06188,196
30.32926,204
30.59664,518
30.86403,12271
31.13141,511
31.39879,236
31.66617,192
31.93355,216
32.20093,184
32.46831,183
32.73569,203
33.00307,190
33.27045,185
33.53783,171
33.80521,170
34.07259,147
34.33997,159
34.60735,185
34.87473,162
35.14211,158
35.40949,164
35.67687,142
35.94425,157
36.21163,174
36.47901,258
36.74639,150
37.01377,182
37.28115,150
37.54853,154
37.81591,165
38.08329,301
38.35067,149
38.61805,157
38.88543,140
39.15282,125
39.4202,158
39.68758,198
39.95496,158
40.22234,142
40.48972,155
40.7571,151
41.02448,142
41.29186,197
41.55924,133
41.82662,146
42.094,162
42.36138,144
42.62876,151
42.89614,168
43.16352,130
43.4309,125
43.69828,184
43.96566,281
44.23304,2379
44.50042,231
44.7678,165
45.03518,143
45.30256,154
45.56994,237
45.83732,157
46.1047,159
46.37208,145
46.63946,153
46.90684,135
47.17422,159
47.44161,142
47.70899,150
47.97637,160
48.24375,173
48.51113,197
48.77851,128
49.04589,119
49.31327,147
49.58065,203
49.84803,215
50.11541,133
50.38279,141
50.65017,131
50.91755,248
51.18493,158
51.45231,125
51.71969,148
51.98707,126
52.25445,133
52.52183,121
52.78921,143
53.05659,146
53.32397,150
53.59135,174
53.85873,153
54.12611,141
54.39349,181
54.66087,654
54.92825,2894
55.19563,399
55.46301,188
55.73039,158
55.99778,178
56.26516,183
56.53254,146
56.79992,131
57.0673,135
57.33468,165
57.60206,151
57.86944,158
58.13682,125
58.4042,158
58.67158,150
58.93896,149
59.20634,145
59.47372,118
59.7411,142
60.00848,123
60.27586,144
60.54324,164
60.81062,170
61.078,146
61.34538,153
61.61276,117
61.88014,145
62.14752,157
62.4149,135
62.68228,136
62.94966,137
63.21704,132
63.48442,134
63.7518,187
64.01918,362
64.28657,1007
64.55395,396
64.82133,171
65.08871,142
65.35609,146
65.62347,144
65.89085,150
66.15823,136
66.42561,146
66.69299,129
66.96037,145
67.22775,143
67.49513,133
67.76251,153
68.02989,134
68.29727,139
68.56465,160
68.83203,137
69.09941,145
69.36679,136
69.63417,128
69.90155,141
70.16893,153
70.43631,151
70.70369,156
70.97107,173
71.23845,145
71.50583,142
71.77321,108
72.04059,141
72.30797,133
72.57536,156
72.84274,515
73.11012,589
73.3775,218
73.64488,149
73.91226,167
74.17964,160
74.44702,129
74.7144,148
74.98178,148
75.24916,158
75.51654,149
75.78392,144
76.0513,132
76.31868,139
76.58606,145
76.85344,141
77.12082,145
77.3882,147
77.65558,126
77.92296,144
78.19034,182
78.45772,153
78.7251,135
78.99248,113
79.25986,144
79.52724,148
79.79462,147
80.062,115
80.32938,158
80.59676,131
80.86415,144
81.13153,297
81.39891,324
81.66629,204
81.93367,122
82.20105,158
82.46843,141
82.73581,139
83.00319,136
83.27057,161
83.53795,141
83.80533,128
84.07271,120
84.34009,147
84.60747,120
84.87485,136
85.14223,128
85.40961,150
85.67699,127
85.94437,127
86.21175,156
86.47913,144
86.74651,162
87.01389,131
87.28127,122
87.54865,114
87.81603,141
88.08341,134
88.35079,163
88.61817,147
88.88555,188
89.15294,374
89.42032,727
89.6877,499
89.95508,253
90.00521,209