File: data/xrd_icdd_PDF/00-070-0047 (PD3).csv
10,156
10.27,162
10.54,124
10.81,142
11.08,138
11.35,132
11.62,122
11.89,100
12.16,108
12.43,104
12.7,112
12.97,90
13.24,92
13.51,98
13.78,88
14.05,104
14.32,102
14.59,88
14.86,90
15.13,88
15.4,72
15.67,100
15.94,90
16.21,98
16.48,62
16.75,94
17.02,100
17.29,84
17.56,78
17.83,100
18.1,96
18.37,110
18.64,84
18.91,90
19.18,82
19.45,76
19.72,74
19.99,90
20.26,70
20.53,68
20.8,78
21.07,84
21.34,90
21.61,82
21.88,92
22.15,84
22.42,74
22.69,84
22.96,62
23.23,92
23.5,88
23.77,84
24.04,62
24.31,66
24.58,90
24.85,90
25.12,78
25.39,70
25.66,80
25.93,68
26.2,64
26.47,88
26.74,76
27.01,74
27.28,88
27.55,64
27.82,70
28.09,76
28.36,84
28.63,78
28.9,82
29.17,96
29.44,106
29.71,86
29.98,78
30.25,76
30.52,68
30.79,82
31.06,106
31.33,108
31.6,532
31.87,402
32.14,88
32.41,74
32.68,86
32.95,66
33.22,80
33.49,68
33.76,86
34.03,88
34.3,64
34.57,92
34.84,88
35.11,86
35.38,98
35.65,256
35.92,702
36.19,118
36.46,88
36.73,90
37,88
37.27,74
37.54,92
37.81,84
38.08,82
38.35,82
38.62,78
38.89,70
39.16,82
39.43,76
39.7,88
39.97,58
40.24,68
40.51,80
40.78,90
41.05,74
41.32,62
41.59,78
41.86,88
42.13,80
42.4,86
42.67,76
42.94,68
43.21,78
43.48,68
43.75,88
44.02,82
44.29,104
44.56,72
44.83,74
45.1,74
45.37,70
45.64,76
45.91,76
46.18,72
46.45,86
46.72,82
46.99,94
47.26,90
47.53,110
47.8,100
48.07,138
48.34,318
48.61,1430
48.88,192
49.15,112
49.42,108
49.69,82
49.96,100
50.23,84
50.5,94
50.77,100
51.04,82
51.31,102
51.58,100
51.85,86
52.12,100
52.39,102
52.66,94
52.93,92
53.2,102
53.47,74
53.74,96
54.01,104
54.28,86
54.55,102
54.82,94
55.09,90
55.36,84
55.63,100
55.9,100
56.17,98
56.44,106
56.71,94
56.98,88
57.25,90
57.52,92
57.79,94
58.06,88
58.33,80
58.6,88
58.87,96
59.14,92
59.41,74
59.68,72
59.95,92
60.22,88
60.49,96
60.76,84
61.03,84
61.3,90
61.57,88
61.84,76
62.11,92
62.38,84
62.65,88
62.92,78
63.19,96
63.46,82
63.73,98
64,120
64.27,452
64.54,166
64.81,104
65.08,106
65.35,112
65.62,92
65.89,124
66.16,402
66.43,158
66.7,114
66.97,92
67.24,92
67.51,94
67.78,88
68.05,92
68.32,90
68.59,84
68.86,110
69.13,94
69.4,96
69.67,110
69.94,100
70.21,100
70.48,88
70.75,108
71.02,90
71.29,98
71.56,120
71.83,88
72.1,112
72.37,98
72.64,106
72.91,104
73.18,192
73.45,454
73.72,196
73.99,110
74.26,130
74.53,98
74.8,112
75.07,100
75.34,134
75.61,204
75.88,234
76.15,138
76.42,112
76.69,128
76.96,128
77.23,192
77.5,908
77.77,468
78.04,118
78.31,102
78.58,108
78.85,110
79.12,106
79.39,108
79.66,88
79.93,98
80.2,100
80.47,126
80.74,106
81.01,112
81.28,120
81.55,110
81.82,102
82.09,110
82.36,116
82.63,130
82.9,122
83.17,118
83.44,112
83.71,126
83.98,156
84.25,266
84.52,302
84.79,194
85.06,156
85.33,110
85.6,110
85.87,118
86.14,100
86.41,118
86.68,118
86.95,130
87.22,106
87.49,106
87.76,116
88.03,138
88.3,124
88.57,128
88.84,110
89.11,124
89.38,108
89.65,116
89.92,118
90,102