File: data/xrd_icdd_PDF/00-060-0201 (PD3).csv
10,1400
10.32,1436
10.64,1473
10.96,1412
11.28,1404
11.6,1596
11.92,1407
12.24,1383
12.56,1305
12.88,1342
13.2,1319
13.52,1272
13.84,1264
14.16,1349
14.48,1304
14.8,1251
15.12,1336
15.44,1196
15.76,1295
16.08,1304
16.4,1341
16.72,1298
17.04,1262
17.36,1328
17.68,1522
18,2062
18.32,1307
18.64,1279
18.96,1222
19.28,1274
19.6,1284
19.92,1246
20.24,1214
20.56,1253
20.88,1241
21.2,1258
21.52,1153
21.84,1249
22.16,1179
22.48,1288
22.8,2093
23.12,1218
23.44,1404
23.76,1192
24.08,1167
24.4,1104
24.72,1206
25.04,1139
25.36,1135
25.68,1143
26,1217
26.32,1452
26.64,1879
26.96,1419
27.28,1940
27.6,1288
27.92,1184
28.24,1572
28.56,1200
28.88,1234
29.2,1218
29.52,1280
29.84,1195
30.16,1157
30.48,1203
30.8,1234
31.12,1317
31.44,4040
31.76,1386
32.08,1260
32.4,1200
32.72,1182
33.04,1209
33.36,1205
33.68,1176
34,1228
34.32,1238
34.64,1284
34.96,1501
35.28,1988
35.6,12033
35.92,4628
36.24,5353
36.56,2113
36.88,2615
37.2,15428
37.52,1993
37.84,1663
38.16,2385
38.48,6385
38.8,1729
39.12,1796
39.44,2797
39.76,12957
40.08,1973
40.4,1468
40.72,1498
41.04,1366
41.36,1392
41.68,1333
42,1380
42.32,1288
42.64,1406
42.96,2719
43.28,1525
43.6,1426
43.92,1438
44.24,1549
44.56,2608
44.88,5152
45.2,1937
45.52,5564
45.84,1542
46.16,1394
46.48,1400
46.8,1408
47.12,1410
47.44,1485
47.76,1945
48.08,2298
48.4,1426
48.72,1439
49.04,1310
49.36,1285
49.68,1338
50,1612
50.32,1376
50.64,1750
50.96,1758
51.28,1439
51.6,1283
51.92,1253
52.24,1219
52.56,1269
52.88,1250
53.2,1441
53.52,1305
53.84,1185
54.16,1244
54.48,1329
54.8,1303
55.12,1324
55.44,1376
55.76,2165
56.08,2717
56.4,1997
56.72,2323
57.04,1451
57.36,1426
57.68,1328
58,1326
58.32,1435
58.64,1572
58.96,2487
59.28,1504
59.6,1530
59.92,1690
60.24,2317
60.56,2760
60.88,1432
61.2,1665
61.52,2066
61.84,1479
62.16,1392
62.48,1383
62.8,1384
63.12,1506
63.44,1882
63.76,2433
64.08,2009
64.4,1405
64.72,1506
65.04,2380
65.36,1769
65.68,3861
66,1737
66.32,1420
66.64,1515
66.96,1768
67.28,1397
67.6,1531
67.92,1575
68.24,1448
68.56,1543
68.88,1508
69.2,2146
69.52,1533
69.84,1466
70.16,1332
70.48,1410
70.8,1364
71.12,1342
71.44,1342
71.76,1328
72.08,1345
72.4,1445
72.72,1734
73.04,2024
73.36,1422
73.68,1430
74,1863
74.32,2953
74.64,2819
74.96,1846
75.28,2044
75.6,1618
75.92,1488
76.24,1563
76.56,2836
76.88,2110
77.2,1726
77.52,1916
77.84,1475
78.16,1402
78.48,1432
78.8,1530
79.12,2112
79.44,1717
79.76,1325
80.08,1328
80.4,1386
80.72,1667
81.04,1701
81.36,1381
81.68,1362
82,1424
82.32,1534
82.64,1438
82.96,1725
83.28,1617
83.6,1541
83.92,1805
84.24,1453
84.56,1326
84.88,1272
85.2,1367
85.52,1454
85.84,1371
86.16,1337
86.48,1440
86.8,1430
87.12,1474
87.44,1456
87.76,1401
88.08,1316
88.4,1312
88.72,1291
89.04,1326
89.36,1389
89.68,1408
90,1535
90.32,1530
90.64,1315
90.96,1360
91.28,1321
91.6,1399
91.92,1368
92.24,1345
92.56,1277
92.88,1336
93.2,1469
93.52,1621
93.84,1681
94.16,1645
94.48,1463
94.8,1399
95.12,1341
95.44,1294
95.76,1375
96.08,1327
96.4,1336
96.72,1274
97.04,1289
97.36,1307
97.68,1352
98,1480
98.32,1692
98.64,1684
98.96,2019
99.28,1785
99.6,1975
99.92,1623
100.24,1459
100.56,1409
100.88,1393
101.2,1518
101.52,1375
101.84,1407
102.16,1611
102.48,1472
102.8,1613
103.12,1503
103.44,1382