File: data/xrd_icdd_PDF/00-055-0860 (PD3).csv
5,1981
5.46,1945
5.92,1897
6.38,1903
6.84,1862
7.3,1786
7.76,1717
8.22,1732
8.68,1663
9.14,1670
9.6,1631
10.06,1595
10.52,1545
10.98,1495
11.44,1479
11.9,1435
12.36,1433
12.82,1433
13.28,1402
13.74,1360
14.2,1375
14.66,1386
15.12,1412
15.58,1376
16.04,1385
16.5,1360
16.96,1363
17.42,1347
17.88,1360
18.34,2227
18.8,1372
19.26,1333
19.72,1350
20.18,1391
20.64,1350
21.1,1528
21.56,1540
22.02,1342
22.48,1378
22.94,1355
23.4,1412
23.86,2168
24.32,1374
24.78,1344
25.24,1360
25.7,1376
26.16,1371
26.62,1385
27.08,1386
27.54,1373
28,1381
28.46,1356
28.92,1387
29.38,1356
29.84,2111
30.3,26875
30.76,2410
31.22,1427
31.68,1393
32.14,1376
32.6,1310
33.06,1345
33.52,1355
33.98,1363
34.44,1352
34.9,1360
35.36,1454
35.82,2303
36.28,1346
36.74,1340
37.2,1376
37.66,1366
38.12,1329
38.58,1340
39.04,1546
39.5,1335
39.96,1328
40.42,1319
40.88,1332
41.34,1319
41.8,1323
42.26,1347
42.72,1354
43.18,2339
43.64,3353
44.1,1455
44.56,1402
45.02,1358
45.48,1304
45.94,1308
46.4,1255
46.86,1299
47.32,1428
47.78,1409
48.24,1353
48.7,1682
49.16,1481
49.62,1391
50.08,1350
50.54,1309
51,1309
51.46,1262
51.92,1271
52.38,1291
52.84,1292
53.3,1859
53.76,6388
54.22,8452
54.68,1561
55.14,1405
55.6,1314
56.06,1226
56.52,1236
56.98,1278
57.44,1314
57.9,1340
58.36,1295
58.82,1303
59.28,1374
59.74,1313
60.2,1235
60.66,1260
61.12,1231
61.58,1207
62.04,1314
62.5,2008
62.96,3760
63.42,2360
63.88,1456
64.34,1265
64.8,1201
65.26,1226
65.72,1270
66.18,1327
66.64,1458
67.1,1565
67.56,1325
68.02,1329
68.48,1340
68.94,1267
69.4,1264
69.86,1256
70.32,1273
70.78,1298
71.24,2050
71.7,4344
72.16,1935
72.62,1359
73.08,1299
73.54,1252
74,1265
74.46,1257
74.92,1278
75.38,1360
75.84,1323
76.3,1401
76.76,1438
77.22,1260
77.68,1255
78.14,1236
78.6,1289
79.06,1610
79.52,1379
79.98,1738
80.44,1608
80.9,1262
81.36,1242
81.82,1257
82.28,1241
82.74,1457
83.2,1307
83.66,1420
84.12,1367
84.58,1256
85.04,1267
85.5,1273
85.96,1273
86.42,1341
86.88,1841
87.34,2632
87.8,2442
88.26,2656
88.72,1572
89.18,1262
89.64,1236
90.1,1232
90.56,1288
91.02,1335
91.48,1300
91.94,1316
92.4,1258
92.86,1252
93.32,1265
93.78,1274
94.24,1279
94.7,1246
95.16,1403
95.62,1632
96.08,1408
96.54,1399
97,1290
97.46,1265
97.92,1260
98.38,1308
98.84,1346
99.3,1357
99.76,1379
100.22,1368
100.68,1352
101.14,1298
101.6,1302
102.06,1345
102.52,1482
102.98,1757
103.44,2250
103.9,2268
104.36,1596
104.82,1381
105.28,1329
105.74,1335
106.2,1319
106.66,1330
107.12,1350
107.58,1468
108.04,1390
108.5,1319
108.96,1319
109.42,1319
109.88,1290
110.34,1469
110.8,1406
111.26,1645
111.72,1883
112.18,1552
112.64,1468
113.1,1366
113.56,1329
114.02,1343
114.48,1335
114.94,1385
115.4,1383
115.86,1391
116.32,1335
116.78,1360
117.24,1372
117.7,1305
118.16,1318
118.62,1325
119.08,1403
119.54,1618
120,1512
120.46,1468
120.92,1580
121.38,1643
121.84,1574
122.3,1459
122.76,1345
123.22,1350
123.68,1335
124.14,1329
124.6,1345
125.06,1350
125.52,1350
125.98,1374
126.44,1382
126.9,1355
127.36,1345
127.82,1386
128.28,1466
128.74,1448
129.2,1524
129.66,1477
130.12,1466
130.58,1601
131.04,1528
131.5,1657
131.96,1502
132.42,1446
132.88,1446
133.34,1422
133.8,1440
134.26,1446
134.72,1457
135.18,1479
135.64,1517
136.1,1484
136.56,1473
137.02,1441
137.48,1419
137.94,1386
138.4,1561
138.86,1433
139.32,1471
139.78,1664
140,1756