File: data/xrd_icdd_PDF/00-064-0248 (PD3).csv
20.0154,97.0006
20.2534,96.3806
20.4914,93.5435
20.7294,79.2179
20.9674,92.7132
21.2054,93.4506
21.4434,88.4212
21.6814,101.7672
21.9194,87.5791
22.1574,91.4105
22.3954,90.7648
22.6334,81.6834
22.8714,81.9786
23.1094,76.4381
23.3474,84.8664
23.5854,73.4565
23.8234,70.111
24.0614,77.1949
24.2994,60.5189
24.5374,63.4079
24.7754,57.4112
25.0134,52.6401
25.2514,62.1836
25.4894,65.6865
25.7274,58.6339
25.9654,67.4308
26.2034,59.8873
26.4414,60.3489
26.6794,52.6401
26.9174,69.0483
27.1554,111.9801
27.3934,97.0252
27.6314,59.8523
27.8694,53.1809
28.1074,50.9111
28.3454,47.0707
28.5834,42.5421
28.8214,65.1936
29.0594,50.4691
29.2974,50.9972
29.5354,49.9443
29.7734,49.1761
30.0114,54.6083
30.2494,50.6019
30.4874,44.0026
30.7254,33.4943
30.9634,45.2417
31.2014,51.9419
31.4394,85.9859
31.6774,114.8284
31.9154,47.9974
32.1534,39.0506
32.3914,31.3736
32.6294,39.2865
32.8674,36.7507
33.1054,34.6642
33.3434,30.6354
33.5814,44.3601
33.8194,36.1452
34.0574,39.1678
34.2954,43.7766
34.5334,33.0594
34.7714,34.9721
35.0094,33.4759
35.2474,26.7356
35.4854,24.6122
35.7234,50.6424
35.9614,25.2373
36.1994,30.2397
36.4374,38.1475
36.6754,38.0658
36.9134,25.0484
37.1514,30.6713
37.3894,31.0252
37.6274,32.3023
37.8654,28.857
38.1034,27.0047
38.3414,32.1247
38.5794,34.5994
38.8174,29.3068
39.0554,37.6471
39.2934,27.6269
39.5314,33.18
39.7694,23.3819
40.0074,28.5907
40.2454,29.005
40.4834,27.1731
40.7214,44.0519
40.9594,32.7073
41.1974,34.1096
41.4354,30.1565
41.6734,24.0335
41.9114,32.288
42.1494,31.9801
42.3874,25.8969
42.6254,24.35
42.8634,39.6609
43.1014,50.1987
43.3394,71.5541
43.5774,55.2104
43.8154,44.5067
44.0534,42.9933
44.2914,57.6868
44.5294,74.7388
44.7674,119.4622
45.0054,398.9004
45.2434,4343.67
45.4814,601.5688
45.7194,159.4557
45.9574,61.146
46.1954,45.605
46.4334,37.5027
46.6714,33.3596
46.9094,30.9981
47.1474,28.5735
47.3854,23.5533
47.6234,33.9392
47.8614,22.8088
48.0994,20.7123
48.3374,23.5677
48.5754,32.5753
48.8134,26.2175
49.0514,30.4748
49.2894,17.9906
49.5274,18.0294
49.7654,19.348
50.0034,20.6999
50.2414,16.5976
50.4794,22.9218
50.7174,19.592
50.9554,16.7727
51.1934,19.6291
51.4314,17.0699
51.6694,20.8587
51.9074,19.2376
52.1454,23.6534
52.3834,17.2099
52.6214,25.4449
52.8594,27.0047
53.0974,19.2652
53.3354,25.1832
53.5734,84.6316
53.8114,56.6484
54.0494,22.819
54.2874,19.5038
54.5254,19.0033
54.7634,18.0526
55.0014,17.6708
55.2394,19.5975
55.4774,20.8758
55.7154,14.5467
55.9534,22.5734
56.1914,56.377
56.4294,22.9643
56.6674,20.2565
56.9054,11.9843
57.1434,22.6702
57.3814,22.7412
57.6194,15.9089
57.8574,16.6026
58.0954,18.1047
58.3334,13.2244
58.5714,19.7415
58.8094,13.862
59.0474,15.9991
59.2854,16.1765
59.5234,12.846
59.7614,16.1596
59.9994,13.0023
60.2374,17.1515
60.4754,13.7607
60.7134,10.0874
60.9514,12.7903
61.1894,9.7701
61.4274,11.7934
61.6654,16.6915
61.9034,17.1478
62.1414,9.8605
62.3794,16.9432
62.6174,18.7013
62.8554,28.9031
63.0934,23.9062
63.3314,21.9988
63.5694,17.7338
63.8074,17.0029
64.0454,15.7522
64.2834,18.048
64.5214,20.9941
64.7594,15.8946
64.9974,21.1217
65.2354,21.7502
65.4734,60.4133
65.7114,148.7769
65.9494,423.5631
66.1874,173.5484
66.4254,59.4723
66.6634,30.5466
66.9014,34.5684
67.1394,23.4185
67.3774,18.4101
67.6154,20.9754
67.8534,18.8607
68.0914,13.7247
68.3294,17.9001
68.5674,19.4534
68.8054,15.6484
69.0434,20.4891
69.2814,12.7007
69.5194,18.2545
69.7574,19.5578
69.9954,15.3844
70.2334,12.0021
70.4714,21.4341
70.7094,18.4814
70.9474,19.2946
71.1854,17.975
71.4234,17.5078
71.6614,15.9955
71.8994,18.9946
72.1374,17.9762
72.3754,17.9282
72.6134,26.037
72.8514,35.7852
73.0894,25.6383
73.3274,20.9941
73.5654,14.3924
73.8034,18.0031
74.0414,16.5529
74.2794,18.7028
74.5174,26.828
74.7554,22.8956
74.9934,40.7585
75.2314,28.5801
75.4694,21.8463
75.7074,16.628
75.9454,21.4288
76.1834,17.6613
76.4214,17.0698
76.6594,17.9858
76.8974,16.1122
77.1354,19.0033
77.3734,17.1822
77.6114,24.6759
77.8494,20.3385
78.0874,14.1173
78.3254,12.9535
78.5634,13.4564
78.8014,14.2657
79.0394,20.0035
79.2774,25.8301
79.5154,29.5336
79.7534,14.8568
79.9914,21.8159
80.2294,20.5829
80.4674,13.631
80.7054,18.4884
80.9434,11.4645
81.1814,20.4996
81.4194,17.7827
81.6574,21.7062
81.8954,19.9943
82.1334,24.341
82.3714,27.1206
82.6094,33.0865
82.8474,43.582
83.0854,81.5137
83.3234,177.4546
83.5614,764.7496
83.7994,478.4917
84.0374,108.3624
84.2754,56.2253
84.5134,35.1465
84.7514,23.8875
84.9894,33.7592
85.2274,26.3312
85.4654,18.9658
85.7034,17.3282
85.9414,22.9882
86.1794,24.0257
86.4174,17.8586
86.6554,17.3624
86.8934,18.9435
87.1314,20.5796
87.3694,15.1805
87.6074,20.7774
87.8454,13.3687
88.0834,15.2519
88.3214,15.1526
88.5594,11.7052
88.7974,19.2873
89.0354,13.7385
89.2734,13.3851
89.5114,22.2557
89.7494,11.6566
89.9874,24.4198
90.2254,20.2206
90.4634,12.6008
90.7014,14.7934
90.9224,14.5224