File: data/xrd_icdd_PDF/00-066-0336 (PD3).csv
4.9978,4231
5.42222,2636
5.84663,2010
6.27105,1527
6.69547,1261
7.11988,1106
7.5443,1009
7.96871,949
8.39313,860
8.81755,804
9.24196,805
9.66638,797
10.0908,790
10.51521,712
10.93963,758
11.36404,755
11.78846,741
12.21288,771
12.63729,730
13.06171,716
13.48613,750
13.91054,702
14.33496,694
14.75937,707
15.18379,693
15.60821,592
16.03262,666
16.45704,680
16.88146,661
17.30587,711
17.73029,612
18.15471,699
18.57912,627
19.00354,633
19.42795,700
19.85237,695
20.27679,666
20.7012,721
21.12562,927
21.55004,2365
21.97445,982
22.39887,1077
22.82328,3022
23.2477,674
23.67212,625
24.09653,628
24.52095,572
24.94537,571
25.36978,621
25.7942,572
26.21861,534
26.64303,565
27.06745,565
27.49186,584
27.91628,545
28.3407,723
28.76511,633
29.18953,662
29.61395,603
30.03836,604
30.46278,702
30.88719,944
31.31161,5860
31.73603,3617
32.16044,2813
32.58486,1535
33.00928,666
33.43369,630
33.85811,555
34.28252,560
34.70694,555
35.13136,607
35.55577,540
35.98019,543
36.40461,574
36.82902,511
37.25344,506
37.67786,508
38.10227,580
38.52669,581
38.9511,1435
39.37552,2196
39.79994,637
40.22435,526
40.64877,499
41.07319,473
41.4976,487
41.92202,505
42.34643,499
42.77085,501
43.19527,555
43.61968,1025
44.0441,961
44.46852,606
44.89293,540
45.31735,562
45.74176,610
46.16618,1321
46.5906,2073
47.01501,580
47.43943,526
47.86385,511
48.28826,464
48.71268,537
49.1371,513
49.56151,809
49.98593,1109
50.41034,678
50.83476,556
51.25918,632
51.68359,1401
52.10801,957
52.53243,777
52.95684,496
53.38126,544
53.80567,486
54.23009,477
54.65451,463
55.07892,862
55.50334,1737
55.92776,958
56.35217,680
56.77659,971
57.201,3930
57.62542,849
58.04984,501
58.47425,487
58.89867,477
59.32309,464
59.7475,481
60.17192,518
60.59634,460
61.02075,447
61.44517,433
61.86958,445
62.294,415
62.71842,415
63.14283,412
63.56725,448
63.99167,480
64.41608,445
64.8405,485
65.26491,628
65.68933,1288
66.11375,822
66.53816,558
66.96258,496
67.387,600
67.81141,988
68.23583,567
68.66025,505
69.08466,426
69.50908,423
69.93349,508
70.35791,860
70.78233,775
71.20674,521
71.63116,566
72.05558,871
72.47999,840
72.90441,734
73.32882,617
73.75324,519
74.17766,450
74.60207,437
75.02649,420
75.45091,446
75.87532,472
76.29974,670
76.72415,1022
77.14857,1099
77.57299,628
77.9974,506
78.42182,463
78.84624,439
79.27065,429
79.69507,425
80.11949,492
80.5439,459
80.96832,731
81.39273,764
81.81715,494
82.24157,429
82.66598,418
83.0904,443
83.51482,459
83.93923,591
84.36365,795
84.78806,558
85.21248,477
85.6369,426
86.06131,507
86.48573,534
86.91015,463
87.33456,467
87.75898,439
88.18339,446
88.60781,557
89.03223,518
89.45664,445
89.88106,474
90.30548,671
90.72989,866
91.15431,732
91.57873,568
92.00314,528
92.42756,512
92.85197,726
93.27639,906
93.70081,624
94.12522,667
94.54964,952
94.97406,711
95.39847,482
95.82289,443
96.2473,451
96.67172,395
97.09614,415
97.52055,425
97.94497,451
98.36939,397
98.7938,409
99.21822,415
99.64263,420
100.067,413
100.491,419
100.916,537
101.3403,488
101.765,473
102.189,436
102.614,442
103.038,482
103.462,501
103.8868,594
104.311,633
104.736,572
105.16,577
105.584,534
106.009,544
106.4333,566
106.858,606
107.282,556
107.707,501
108.131,572
108.555,643
108.98,656
109.404,577
109.829,529
110.253,499
110.677,489
111.102,461
111.526,470
111.951,488
112.375,609
112.8,701
113.224,865
113.648,750
114.073,632
114.497,594
114.922,508
115.346,531
115.77,525
116.195,504
116.619,483
117.0437,509
117.468,503
117.893,505
118.317,522
118.741,539
119.166,511
119.5902,550
120.015,543
120.439,552
120.863,601
121.288,662
121.712,645
122.1367,610
122.561,601
122.986,557
123.41,655
123.834,636
124.259,652
124.6832,540
125.108,466
125.532,485
125.956,508
126.381,581
126.805,590
127.23,557
127.654,599
128.079,542
128.503,607
128.927,660
129.352,655
129.776,698
129.9783,676