File: data/xrd_icdd_PDF/00-067-0714 (PD3).csv
5.011,1537
5.453,1474
5.895,1738
6.337,8328
6.779,1391
7.221,1202
7.663,1079
8.105,959
8.547,901
8.989,899
9.431,869
9.873,800
10.315,809
10.757,839
11.199,809
11.641,793
12.083,787
12.525,743
12.967,721
13.409,700
13.851,711
14.293,684
14.735,687
15.177,654
15.619,758
16.061,682
16.503,657
16.945,635
17.387,676
17.829,678
18.271,658
18.713,781
19.155,3964
19.597,877
20.039,634
20.481,665
20.923,632
21.365,674
21.807,681
22.249,710
22.691,3828
23.133,718
23.575,724
24.017,644
24.459,780
24.901,1339
25.343,15709
25.785,44487
26.227,1250
26.669,911
27.111,819
27.553,761
27.995,774
28.437,627
28.879,655
29.321,606
29.763,600
30.205,698
30.647,960
31.089,3585
31.531,1074
31.973,660
32.415,3125
32.857,649
33.299,547
33.741,629
34.183,514
34.625,463
35.067,496
35.509,551
35.951,486
36.393,524
36.835,944
37.277,479
37.719,458
38.161,460
38.603,464
39.045,686
39.487,1999
39.929,684
40.371,897
40.813,5151
41.255,695
41.697,580
42.139,548
42.581,517
43.023,477
43.465,575
43.907,592
44.349,4191
44.791,817
45.233,4793
45.675,810
46.117,1866
46.559,600
47.001,538
47.443,510
47.885,486
48.327,523
48.769,1047
49.211,517
49.653,466
50.095,552
50.537,762
50.979,527
51.421,884
51.863,2736
52.305,815
52.747,638
53.189,1156
53.631,487
54.073,469
54.515,463
54.957,466
55.399,468
55.841,482
56.283,890
56.725,727
57.167,444
57.609,486
58.051,411
58.493,410
58.935,379
59.377,393
59.819,401
60.261,375
60.703,826
61.145,495
61.587,389
62.029,400
62.471,591
62.913,721
63.355,449
63.797,423
64.239,511
64.681,913
65.123,1632
65.565,742
66.007,695
66.449,447
66.891,416
67.333,400
67.775,474
68.217,461
68.659,396
69.101,450
69.543,491
69.985,464
70.427,946
70.869,738
71.311,567
71.753,695
72.195,927
72.637,474
73.079,595
73.521,751
73.963,475
74.405,428
74.847,474
75.289,427
75.731,907
76.173,441
76.615,512
77.057,421
77.499,369
77.941,393
78.383,490
78.825,525
79.267,890
79.709,469
80.151,368
80.593,414
81.035,406
81.477,444
81.919,716
82.361,676
82.803,546
83.245,443
83.687,520
84.129,721
84.571,445
85.013,416
85.455,384
85.897,425
86.339,477
86.781,409
87.223,680
87.665,447
88.107,586
88.549,597
88.991,508
89.433,414
89.875,378
90.317,398
90.759,515
91.201,557
91.643,461
92.085,837
92.527,605
92.969,397
93.411,408
93.853,376
94.295,395
94.737,465
95.179,378
95.621,417
96.063,466
96.505,531
96.947,767
97.389,582
97.831,484
98.273,570
98.715,670
99.157,449
99.599,411
100.041,402
100.483,461
100.925,392
101.367,433
101.809,407
102.251,424
102.693,406
103.135,421
103.577,622
104.019,527
104.461,416
104.903,468
105.345,493
105.787,394
106.229,434
106.671,411
107.113,426
107.555,400
107.997,420
108.439,480
108.881,535
109.323,468
109.765,465
110.207,405
110.649,419
111.091,398
111.533,460
111.975,454
112.417,521
112.859,457
113.301,469
113.743,569
114.185,662
114.627,539
115.069,535
115.511,713
115.953,613
116.395,570
116.837,487
117.279,559
117.721,656
118.163,543
118.605,483
119.047,456
119.489,434
119.931,423
120.373,429
120.815,456
121.257,512
121.699,616
122.141,558
122.583,603
123.025,607
123.467,579
123.909,457
124.351,396
124.793,450
125.235,486
125.677,473
126.119,526
126.561,461
127.003,466
127.445,498
127.887,485
128.329,440
128.771,387
129.213,442
129.655,400
130.097,408
130.539,418
130.981,434
131.423,433
131.865,449
132.307,477
132.749,487
133.191,621
133.633,590
134.075,537
134.517,489
134.959,482
134.976,491