File: data/xrd_icdd_PDF/00-065-0725 (PD3).csv
2,16867
2.24,10611
2.48,8258
2.72,7203
2.96,6591
3.2,5750
3.44,4757
3.68,3943
3.92,3295
4.16,2761
4.4,2420
4.64,2057
4.88,1807
5.12,1589
5.36,1441
5.6,1254
5.84,1093
6.08,956
6.32,836
6.56,765
6.8,657
7.04,640
7.28,592
7.52,560
7.76,477
8,452
8.24,424
8.48,407
8.72,358
8.96,345
9.2,359
9.44,304
9.68,294
9.92,278
10.16,225
10.4,232
10.64,250
10.88,237
11.12,231
11.36,238
11.6,229
11.84,210
12.08,208
12.32,234
12.56,214
12.8,210
13.04,193
13.28,213
13.52,207
13.76,207
14,198
14.24,191
14.48,195
14.72,215
14.96,194
15.2,199
15.44,205
15.68,189
15.92,185
16.16,181
16.4,187
16.64,207
16.88,206
17.12,202
17.36,215
17.6,213
17.84,213
18.08,182
18.32,218
18.56,223
18.8,225
19.04,206
19.28,208
19.52,230
19.76,207
20,257
20.24,221
20.48,237
20.72,245
20.96,257
21.2,246
21.44,241
21.68,244
21.92,267
22.16,229
22.4,248
22.64,232
22.88,226
23.12,246
23.36,247
23.6,257
23.84,266
24.08,257
24.32,248
24.56,271
24.8,256
25.04,248
25.28,238
25.52,230
25.76,241
26,251
26.24,253
26.48,251
26.72,275
26.96,286
27.2,256
27.44,314
27.68,283
27.92,310
28.16,302
28.4,357
28.64,370
28.88,329
29.12,396
29.36,426
29.6,476
29.84,502
30.08,621
30.32,782
30.56,901
30.8,1300
31.04,1817
31.28,2225
31.52,2607
31.76,2543
32,2456
32.24,2224
32.48,1829
32.72,1587
32.96,1372
33.2,1273
33.44,1410
33.68,1671
33.92,2091
34.16,2320
34.4,2464
34.64,2517
34.88,2428
35.12,2587
35.36,2916
35.6,3257
35.84,3651
36.08,3919
36.32,3695
36.56,3450
36.8,2979
37.04,2274
37.28,1664
37.52,1152
37.76,821
38,642
38.24,491
38.48,404
38.72,373
38.96,375
39.2,327
39.44,327
39.68,307
39.92,301
40.16,267
40.4,300
40.64,297
40.88,242
41.12,311
41.36,258
41.6,265
41.84,234
42.08,243
42.32,274
42.56,231
42.8,224
43.04,275
43.28,251
43.52,261
43.76,276
44,264
44.24,303
44.48,286
44.72,280
44.96,278
45.2,284
45.44,299
45.68,382
45.92,379
46.16,484
46.4,544
46.64,641
46.88,824
47.12,880
47.36,924
47.6,949
47.84,853
48.08,821
48.32,708
48.56,560
48.8,459
49.04,423
49.28,372
49.52,306
49.76,272
50,265
50.24,270
50.48,260
50.72,235
50.96,250
51.2,268
51.44,244
51.68,253
51.92,257
52.16,259
52.4,246
52.64,265
52.88,266
53.12,298
53.36,265
53.6,300
53.84,282
54.08,307
54.32,334
54.56,388
54.8,437
55.04,460
55.28,652
55.52,819
55.76,1041
56,1202
56.24,1430
56.48,1465
56.72,1462
56.96,1343
57.2,1195
57.44,950
57.68,802
57.92,646
58.16,503
58.4,399
58.64,346
58.88,331
59.12,321
59.36,327
59.6,321
59.84,349
60.08,317
60.32,319
60.56,376
60.8,390
61.04,425
61.28,484
61.52,626
61.76,715
62,952
62.24,1064
62.48,1156
62.72,1214
62.96,1238
63.2,1072
63.44,947
63.68,941
63.92,694
64.16,582
64.4,484
64.64,406
64.88,377
65.12,375
65.36,418
65.6,475
65.84,506
66.08,564
66.32,624
66.56,670
66.8,826
67.04,1003
67.28,1036
67.52,1185
67.76,1219
68,1330
68.24,1264
68.48,1223
68.72,1173
68.96,990
69.2,916
69.44,797
69.68,664
69.92,528
70,549