File: data/xrd_icdd_PDF/00-068-0088 (PD3).csv
10,369
10.34,431
10.68,429
11.02,408
11.36,425
11.7,381
12.04,387
12.38,353
12.72,337
13.06,329
13.4,317
13.74,304
14.08,287
14.42,274
14.76,273
15.1,248
15.44,225
15.78,215
16.12,209
16.46,222
16.8,204
17.14,319
17.48,274
17.82,182
18.16,211
18.5,207
18.84,224
19.18,224
19.52,258
19.86,223
20.2,298
20.54,257
20.88,257
21.22,242
21.56,285
21.9,322
22.24,338
22.58,354
22.92,372
23.26,400
23.6,427
23.94,490
24.28,487
24.62,564
24.96,608
25.3,736
25.64,741
25.98,882
26.32,2890
26.66,5195
27,984
27.34,944
27.68,861
28.02,1678
28.36,937
28.7,872
29.04,793
29.38,766
29.72,699
30.06,708
30.4,597
30.74,634
31.08,626
31.42,704
31.76,1432
32.1,2331
32.44,600
32.78,466
33.12,451
33.46,420
33.8,358
34.14,385
34.48,358
34.82,337
35.16,369
35.5,297
35.84,265
36.18,337
36.52,454
36.86,230
37.2,199
37.54,190
37.88,220
38.22,207
38.56,211
38.9,174
39.24,174
39.58,188
39.92,187
40.26,216
40.6,223
40.94,208
41.28,240
41.62,252
41.96,262
42.3,228
42.64,352
42.98,2665
43.32,516
43.66,313
44,279
44.34,289
44.68,280
45.02,312
45.36,323
45.7,1562
46.04,598
46.38,335
46.72,283
47.06,271
47.4,346
47.74,315
48.08,306
48.42,395
48.76,1578
49.1,374
49.44,323
49.78,319
50.12,298
50.46,294
50.8,297
51.14,380
51.48,305
51.82,296
52.16,275
52.5,334
52.84,327
53.18,426
53.52,1716
53.86,2075
54.2,480
54.54,1686
54.88,447
55.22,283
55.56,288
55.9,269
56.24,287
56.58,227
56.92,224
57.26,212
57.6,201
57.94,326
58.28,242
58.62,212
58.96,168
59.3,225
59.64,209
59.98,254
60.32,240
60.66,210
61,169
61.34,214
61.68,182
62.02,213
62.36,200
62.7,168
63.04,188
63.38,164
63.72,215
64.06,170
64.4,135
64.74,148
65.08,175
65.42,182
65.76,162
66.1,162
66.44,247
66.78,565
67.12,234
67.46,206
67.8,475
68.14,199
68.48,172
68.82,360
69.16,769
69.5,217
69.84,178
70.18,152
70.52,127
70.86,141
71.2,142
71.54,126
71.88,100
72.22,136
72.56,157
72.9,329
73.24,618
73.58,291
73.92,567
74.26,182
74.6,159
74.94,147
75.28,154
75.62,301
75.96,600
76.3,234
76.64,191
76.98,298
77.32,134
77.66,137
78,97
78.34,107
78.68,135
79.02,298
79.36,154
79.7,111
80.04,92
80.38,79
80.72,119
81.06,101
81.4,56
81.74,83
82.08,122
82.42,212
82.76,548
83.1,215
83.44,126
83.78,102
84.12,85
84.46,104
84.8,71
85.14,83
85.48,83
85.82,90
86.16,90
86.5,89
86.84,214
87.18,157
87.52,71
87.86,62
88.2,96
88.54,77
88.88,70
89.22,81
89.56,64
89.9,87
90.24,145
90.58,610
90.92,426
91.26,94
91.6,90
91.94,82
92.28,78
92.62,72
92.96,93
93.3,89
93.64,85
93.98,109
94.32,163
94.66,132
95,62
95.34,45
95.68,88
96.02,96
96.36,315
96.7,206
97.04,101
97.38,94
97.72,52
98.06,41
98.4,88
98.74,57
99.08,68
99.42,49
99.76,83
100.1,82
100.44,65
100.78,52
101.12,77
101.46,59
101.8,187
102.14,236
102.48,125
102.82,181
103.16,221
103.5,141
103.84,109
104.18,341
104.52,243
104.86,100
105.2,85
105.54,49
105.88,59
106.22,60
106.56,72
106.9,52
107.24,57
107.58,102
107.92,177
108.26,392
108.6,304
108.94,258
109.28,178
109.62,115
109.96,49
110,75