File: data/xrd_icdd_PDF/00-063-0412 (PD3).csv
5,763
5.4,542
5.8,579
6.2,517
6.6,566
7,517
7.4,462
7.8,443
8.2,405
8.6,419
9,431
9.4,406
9.8,462
10.2,315
10.6,304
11,356
11.4,325
11.8,253
12.2,360
12.6,260
13,235
13.4,243
13.8,219
14.2,263
14.6,264
15,289
15.4,312
15.8,234
16.2,306
16.6,255
17,314
17.4,289
17.8,187
18.2,275
18.6,334
19,263
19.4,354
19.8,345
20.2,369
20.6,292
21,197
21.4,210
21.8,252
22.2,253
22.6,221
23,368
23.4,529
23.8,566
24.2,291
24.6,286
25,368
25.4,295
25.8,379
26.2,345
26.6,451
27,866
27.4,1487
27.8,486
28.2,365
28.6,300
29,434
29.4,387
29.8,477
30.2,517
30.6,347
31,461
31.4,451
31.8,452
32.2,490
32.6,596
33,621
33.4,1032
33.8,4674
34.2,2600
34.6,10020
35,2217
35.4,945
35.8,1658
36.2,748
36.6,664
37,623
37.4,585
37.8,1233
38.2,679
38.6,665
39,1457
39.4,1450
39.8,704
40.2,964
40.6,4358
41,874
41.4,2560
41.8,1075
42.2,779
42.6,663
43,912
43.4,2007
43.8,1320
44.2,726
44.6,653
45,684
45.4,1260
45.8,694
46.2,537
46.6,651
47,589
47.4,596
47.8,642
48.2,673
48.6,684
49,676
49.4,681
49.8,862
50.2,660
50.6,665
51,788
51.4,1255
51.8,750
52.2,878
52.6,1355
53,837
53.4,765
53.8,650
54.2,732
54.6,1228
55,828
55.4,805
55.8,897
56.2,1592
56.6,1301
57,1705
57.4,1341
57.8,824
58.2,733
58.6,871
59,775
59.4,762
59.8,961
60.2,1068
60.6,1106
61,942
61.4,935
61.8,935
62.2,729
62.6,738
63,690
63.4,767
63.8,735
64.2,710
64.6,746
65,789
65.4,759
65.8,737
66.2,753
66.6,849
67,1450
67.4,1236
67.8,894
68.2,761
68.6,674
69,664
69.4,683
69.8,789
70.2,706
70.6,752
71,725
71.4,736
71.8,690
72.2,711
72.6,945
73,1223
73.4,871
73.8,946
74.2,996
74.6,874
75,792
75.4,958
75.8,862
76.2,847
76.6,699
77,740
77.4,783
77.8,797
78.2,1024
78.6,809
79,767
79.4,623
79.8,653
80.2,822
80.6,1083
81,613
81.4,676
81.8,696
82.2,768
82.6,971
83,699
83.4,672
83.8,524
84.2,575
84.6,605
85,536
85.4,560
85.8,643
86.2,726
86.6,582
87,636
87.4,602
87.8,738
88.2,756
88.6,563
89,644
89.4,648
89.8,654
90.2,686
90.6,698
91,793
91.4,735
91.8,776
92.2,667
92.6,654
93,585
93.4,625
93.8,686
94.2,1009
94.6,632
95,650
95.4,607
95.8,644
96.2,651
96.6,505
97,588
97.4,621
97.8,726
98.2,650
98.6,621
99,616
99.4,658
99.8,608
100.2,664
100.6,675
101,613
101.4,755
101.8,742
102.2,715
102.6,759
103,665
103.4,578
103.8,635
104.2,628
104.6,637
105,692
105.4,705
105.8,651
106.2,740
106.6,676
107,715
107.4,677
107.8,659
108.2,683
108.6,706
109,735
109.4,748
109.8,735
110.2,699
110.6,775
111,833
111.4,778
111.8,827
112.2,772
112.6,765
113,803
113.4,763
113.8,779
114.2,815
114.6,849
115,770
115.4,763
115.8,717
116.2,686
116.6,821
117,877
117.4,945
117.8,749
118.2,826
118.6,959
119,898
119.4,750
119.8,801
120.04,798