File: data/xrd_icdd_PDF/00-069-0233 (PD3).csv
10.04058,956
10.28498,980
10.52937,1017
10.77377,1094
11.01817,904
11.26257,1146
11.50696,908
11.75136,1044
11.99576,978
12.24016,1065
12.48455,1032
12.72895,1044
12.97335,1097
13.21775,1040
13.46214,913
13.70654,1004
13.95094,1027
14.19534,1029
14.43973,985
14.68413,976
14.92853,1050
15.17293,1044
15.41732,1220
15.66172,1294
15.90612,972
16.15051,1042
16.39491,908
16.63931,1007
16.88371,1007
17.1281,996
17.3725,1007
17.6169,1079
17.8613,994
18.10569,999
18.35009,1008
18.59449,1001
18.83889,1009
19.08328,994
19.32768,1031
19.57208,980
19.81648,1013
20.06087,1011
20.30527,1078
20.54967,1101
20.79407,1088
21.03846,1065
21.28286,1151
21.52726,1029
21.77166,1025
22.01605,1052
22.26045,1013
22.50485,1037
22.74924,1060
22.99364,1165
23.23804,1041
23.48244,1034
23.72683,1071
23.97123,1033
24.21563,1023
24.46003,1009
24.70442,1006
24.94882,994
25.19322,960
25.43762,997
25.68201,1031
25.92641,1067
26.17081,986
26.41521,1090
26.6596,1008
26.904,1023
27.1484,1035
27.3928,1092
27.63719,1000
27.88159,991
28.12599,1029
28.37038,966
28.61478,1014
28.85918,1399
29.10358,6304
29.34797,1088
29.59237,1042
29.83677,1321
30.08117,6480
30.32556,1245
30.56996,1039
30.81436,979
31.05876,1056
31.30315,1734
31.54755,2152
31.79195,1078
32.03635,1077
32.28074,1044
32.52514,1015
32.76954,1170
33.01394,3331
33.25833,2996
33.50273,1078
33.74713,1158
33.99153,965
34.23592,1005
34.48032,974
34.72472,971
34.96911,967
35.21351,1123
35.45791,1054
35.70231,1303
35.9467,1039
36.1911,1031
36.4355,1007
36.6799,1045
36.92429,1129
37.16869,1194
37.41309,1166
37.65749,1523
37.90188,1004
38.14628,1077
38.39068,1089
38.63508,1041
38.87947,1013
39.12387,1002
39.36827,1055
39.61267,1126
39.85706,1052
40.10146,1034
40.34586,969
40.59025,1104
40.83465,1003
41.07905,1041
41.32345,1007
41.56784,981
41.81224,969
42.05664,989
42.30104,919
42.54543,981
42.78983,990
43.03423,1035
43.27863,3695
43.52302,1641
43.76742,1122
44.01182,1106
44.25622,1161
44.50061,1074
44.74501,1098
44.98941,992
45.23381,1025
45.4782,1106
45.7226,1087
45.967,1018
46.2114,979
46.45579,1053
46.70019,1511
46.94459,1032
47.18898,1122
47.43338,1045
47.67778,1036
47.92218,1282
48.16657,1089
48.41097,1014
48.65537,1055
48.89977,1004
49.14416,967
49.38856,949
49.63296,1158
49.87736,2488
50.12175,1117
50.36615,1068
50.61055,1080
50.85495,1041
51.09934,2395
51.34374,2373
51.58814,7325
51.83254,1169
52.07693,1081
52.32133,1097
52.56573,1026
52.81012,1037
53.05452,1004
53.29892,984
53.54332,1002
53.78771,1011
54.03211,1066
54.27651,1151
54.52091,1014
54.7653,1047
55.0097,986
55.2541,1000
55.4985,926
55.74289,977
55.98729,1650
56.23169,965
56.47609,962
56.72048,1116
56.96488,2414
57.20928,1530
57.45368,1176
57.69807,1107
57.94247,1007
58.18687,1056
58.43127,1035
58.67566,973
58.92006,993
59.16446,969
59.40885,1069
59.65325,981
59.89765,1573
60.14205,1220
60.38644,1123
60.63084,989
60.87524,1759
61.11964,1074
61.36403,1374
61.60843,6142
61.85283,1229
62.09723,1044
62.34162,1164
62.58602,2188
62.83042,1231
63.07482,1085
63.31921,1033
63.56361,1052
63.80801,968
64.05241,969
64.2968,1001
64.5412,1038
64.7856,1442
65.02999,1155
65.27439,1119
65.51879,1333
65.76319,937
66.00758,989
66.25198,1021
66.49638,1023
66.74078,1079
66.98517,1033
67.22957,1060
67.47397,1117
67.71837,1143
67.96276,1566
68.20716,1317
68.45156,981
68.69596,972
68.94035,1049
69.18475,1016
69.42915,1304
69.67355,1270
69.91794,1042
70.16234,989
70.40674,989
70.65114,1002
70.89553,1024
71.13993,969
71.38433,1025
71.62872,967
71.87312,981
72.11752,1088
72.36192,947
72.60631,1059
72.85071,984
73.09511,1041
73.33951,1153
73.5839,1027
73.8283,1033
74.0727,1060
74.3171,1002
74.56149,1302
74.80589,1025
75.05029,1103
75.29469,1104
75.53908,1063
75.78348,1138
76.02788,1038
76.27228,1058
76.51667,1043
76.76107,1016
77.00547,1065
77.24986,1106
77.49426,986
77.73866,1035
77.98306,1001
78.22745,1040
78.47185,968
78.71625,1134
78.96065,1020
79.20504,1094
79.44944,1024
79.69384,998
79.93824,994
80.03224,966