File: data/xrd_icdd_PDF/00-064-0863 (PD3).csv
10,1880
10.45,1846
10.9,1820
11.35,1672
11.8,1606
12.25,1578
12.7,1541
13.15,1506
13.6,1461
14.05,1409
14.5,1329
14.95,1315
15.4,1341
15.85,1356
16.3,1244
16.75,1361
17.2,1360
17.65,1337
18.1,1395
18.55,1400
19,1424
19.45,1483
19.9,1472
20.35,1438
20.8,1522
21.25,1558
21.7,1545
22.15,1560
22.6,1736
23.05,2026
23.5,2430
23.95,3566
24.4,6919
24.85,29129
25.3,50093
25.75,25470
26.2,6251
26.65,3274
27.1,2225
27.55,1734
28,1400
28.45,1232
28.9,1154
29.35,1066
29.8,1059
30.25,943
30.7,1029
31.15,911
31.6,843
32.05,885
32.5,869
32.95,768
33.4,782
33.85,782
34.3,807
34.75,815
35.2,898
35.65,1168
36.1,1530
36.55,2912
37,4840
37.45,7841
37.9,13977
38.35,7386
38.8,4415
39.25,2176
39.7,1321
40.15,949
40.6,891
41.05,892
41.5,758
41.95,745
42.4,786
42.85,747
43.3,766
43.75,693
44.2,735
44.65,832
45.1,855
45.55,958
46,1095
46.45,1432
46.9,2033
47.35,5631
47.8,12958
48.25,12322
48.7,5133
49.15,1912
49.6,1264
50.05,1063
50.5,960
50.95,853
51.4,948
51.85,1080
52.3,1207
52.75,1534
53.2,2910
53.65,8247
54.1,11174
54.55,8510
55,9834
55.45,6591
55.9,2687
56.35,1567
56.8,1105
57.25,899
57.7,773
58.15,725
58.6,714
59.05,706
59.5,715
59.95,686
60.4,817
60.85,998
61.3,1383
61.75,2570
62.2,5293
62.65,8000
63.1,5693
63.55,2268
64,1310
64.45,933
64.9,812
65.35,716
65.8,631
66.25,655
66.7,678
67.15,707
67.6,884
68.05,1279
68.5,2829
68.95,3761
69.4,2638
69.85,3058
70.3,3660
70.75,2402
71.2,1249
71.65,854
72.1,748
72.55,759
73,792
73.45,961
73.9,1341
74.35,2228
74.8,4267
75.25,5315
75.7,3568
76.15,2360
76.6,1600
77.05,983
77.5,715
77.95,652
78.4,599
78.85,562
79.3,514
79.75,596
80.2,618
80.65,780
81.1,939
81.55,1122
82,1811
82.45,3000
82.9,3467
83.35,2299
83.8,1404
84.25,882
84.7,660
85.15,539
85.6,518
86.05,449
86.5,476
86.95,453
87.4,478
87.85,460
88.3,390
88.75,368
89.2,396
89.65,375
90.1,455
90.55,399
91,384
91.45,442
91.9,497
92.35,534
92.8,645
93.25,957
93.7,1356
94.15,1677
94.6,1877
95.05,1833
95.5,1543
95.95,1098
96.4,756
96.85,652
97.3,615
97.75,732
98.2,1074
98.65,1319
99.1,1081
99.55,1012
100,1079
100.45,990
100.9,862
101.35,905
101.8,752
102.25,622
102.7,561
103.15,542
103.6,480
104.05,544
104.5,514
104.95,547
105.4,553
105.85,687
106.3,742
106.75,1102
107.2,1604
107.65,1958
108.1,1751
108.55,1573
109,1435
109.45,1286
109.9,1054
110.35,784
110.8,700
111.25,743
111.7,766
112.15,874
112.6,1065
113.05,1370
113.5,1848
113.95,2203
114.4,2298
114.85,2129
115.3,1734
115.75,1457
116.2,1134
116.65,1073
117.1,1093
117.55,1291
118,1921
118.45,2628
118.9,2993
119.35,2554
119.8,2069
120.25,1846
120.7,1669
121.15,1734
121.6,1822
122.05,1968
122.5,2081
122.95,1969
123.4,1604
123.85,1234
124.3,1027
124.75,917
125.2,870
125.65,823
126.1,795
126.55,848
127,801
127.45,775
127.9,842
128.35,851
128.8,896
129.25,967
129.7,1139
130.15,1464
130.6,1628
131.05,1824
131.5,1732
131.95,1686
132.4,1468
132.85,1316
133.3,1156
133.75,1069
134.2,1012
134.65,1007
135.1,1028
135.55,1165
136,1368
136.45,1542
136.9,1716
137.35,1881
137.8,1891
138.25,1742
138.7,1528
139.15,1303
139.6,1122
140,1085