File: data/xrd_icdd_PDF/00-065-0318 (PD3).csv
9.945,1161
10.285,1118
10.625,1090
10.965,1052
11.305,1018
11.645,1003
11.985,975
12.325,938
12.665,936
13.005,1039
13.345,921
13.685,860
14.025,834
14.365,804
14.705,788
15.045,770
15.385,756
15.725,739
16.065,725
16.405,699
16.745,686
17.085,669
17.425,655
17.765,643
18.105,626
18.445,610
18.785,603
19.125,597
19.465,608
19.805,1154
20.145,578
20.485,545
20.825,536
21.165,521
21.505,511
21.845,507
22.185,497
22.525,495
22.865,497
23.205,544
23.545,502
23.885,530
24.225,894
24.565,479
24.905,488
25.245,450
25.585,451
25.925,500
26.265,645
26.605,2110
26.945,1164
27.285,435
27.625,429
27.965,424
28.305,445
28.645,428
28.985,429
29.325,418
29.665,501
30.005,536
30.345,836
30.685,14494
31.025,1241
31.365,543
31.705,466
32.045,435
32.385,417
32.725,586
33.065,8011
33.405,890
33.745,1698
34.085,368
34.425,336
34.765,330
35.105,334
35.445,379
35.785,549
36.125,307
36.465,281
36.805,277
37.145,272
37.485,278
37.825,278
38.165,266
38.505,270
38.845,306
39.185,291
39.525,438
39.865,426
40.205,2403
40.545,552
40.885,967
41.225,408
41.565,310
41.905,296
42.245,346
42.585,596
42.925,1782
43.265,340
43.605,270
43.945,254
44.285,254
44.625,275
44.965,254
45.305,245
45.645,248
45.985,252
46.325,274
46.665,398
47.005,945
47.345,4278
47.685,1419
48.025,622
48.365,336
48.705,382
49.045,278
49.385,259
49.725,217
50.065,222
50.405,222
50.745,216
51.085,211
51.425,220
51.765,317
52.105,233
52.445,270
52.785,723
53.125,1323
53.465,659
53.805,505
54.145,276
54.485,451
54.825,324
55.165,1506
55.505,401
55.845,297
56.185,233
56.525,229
56.865,231
57.205,420
57.545,2206
57.885,429
58.225,226
58.565,208
58.905,289
59.245,369
59.585,216
59.925,403
60.265,330
60.605,215
60.945,176
61.285,170
61.625,181
61.965,233
62.305,202
62.645,174
62.985,176
63.325,203
63.665,650
64.005,754
64.345,477
64.685,252
65.025,295
65.365,347
65.705,175
66.045,163
66.385,155
66.725,173
67.065,322
67.405,261
67.745,168
68.085,158
68.425,179
68.765,434
69.105,793
69.445,485
69.785,334
70.125,195
70.465,154
70.805,153
71.145,148
71.485,146
71.825,164
72.165,181
72.505,147
72.845,163
73.185,151
73.525,172
73.865,379
74.205,356
74.545,300
74.885,400
75.225,325
75.565,394
75.905,213
76.245,169
76.585,163
76.925,161
77.265,206
77.605,445
77.945,223
78.285,179
78.625,319
78.965,652
79.305,449
79.645,419
79.985,300
80.325,201
80.665,160
81.005,152
81.345,188
81.685,220
82.025,186
82.365,235
82.705,426
83.045,536
83.385,365
83.725,210
84.065,169
84.405,166
84.745,330
85.085,307
85.425,155
85.765,158
86.105,265
86.445,234
86.785,157
87.125,161
87.465,187
87.805,206
88.145,327
88.485,318
88.825,234
89.165,167
89.505,147
89.845,144
90.185,139
90.525,137
90.865,153
91.205,187
91.545,190
91.885,169
92.225,337
92.565,415
92.905,271
93.245,310
93.585,330
93.925,237
94.265,257
94.605,189
94.945,146
95.285,140
95.625,166
95.965,428
96.305,384
96.645,208
96.985,156
97.325,140
97.665,135
98.005,137
98.345,164
98.685,152
99.025,128
99.365,128
99.705,138
100.045,180
100.385,180
100.725,219
101.065,331
101.405,337
101.745,224
102.085,186
102.425,164
102.765,190
103.105,200
103.445,158
103.785,127
104.125,127
104.465,139
104.805,172
105.145,180
105.485,210
105.825,202
106.165,208
106.505,267
106.845,306
107.185,281
107.525,213
107.865,168
108.205,143
108.545,144
108.885,141
109.225,152
109.565,182
109.871,197