File: data/xrd_icdd_PDF/00-056-1315 (PD3).csv
6,6385
6.32,6232
6.64,6088
6.96,6019
7.28,6064
7.6,5975
7.92,6062
8.24,6005
8.56,5967
8.88,6014
9.2,5839
9.52,5921
9.84,5767
10.16,5796
10.48,5751
10.8,5874
11.12,5824
11.44,5955
11.76,5718
12.08,5669
12.4,5790
12.72,5771
13.04,5639
13.36,5652
13.68,5770
14,5566
14.32,5692
14.64,5677
14.96,5603
15.28,5621
15.6,5662
15.92,5528
16.24,5637
16.56,5584
16.88,5636
17.2,5610
17.52,5657
17.84,5620
18.16,5614
18.48,5545
18.8,5532
19.12,6176
19.44,5932
19.76,5732
20.08,5634
20.4,5759
20.72,6574
21.04,5721
21.36,5583
21.68,5578
22,5499
22.32,5543
22.64,5551
22.96,5502
23.28,5725
23.6,5589
23.92,5590
24.24,5571
24.56,5479
24.88,5544
25.2,5481
25.52,5626
25.84,5809
26.16,6159
26.48,14422
26.8,6495
27.12,5732
27.44,5723
27.76,5514
28.08,5640
28.4,5530
28.72,5579
29.04,5501
29.36,5675
29.68,5558
30,5469
30.32,5438
30.64,5536
30.96,5466
31.28,5639
31.6,5516
31.92,5593
32.24,5743
32.56,6965
32.88,6405
33.2,6070
33.52,6623
33.84,16537
34.16,8062
34.48,6074
34.8,5957
35.12,6114
35.44,10347
35.76,6349
36.08,5751
36.4,5559
36.72,5553
37.04,5572
37.36,5586
37.68,6341
38,11364
38.32,6484
38.64,6597
38.96,12022
39.28,7373
39.6,6035
39.92,5892
40.24,6314
40.56,10689
40.88,6187
41.2,5796
41.52,5878
41.84,5963
42.16,7252
42.48,8770
42.8,5968
43.12,5764
43.44,5460
43.76,5506
44.08,5616
44.4,5474
44.72,5494
45.04,5514
45.36,5541
45.68,5447
46,5506
46.32,5558
46.64,5475
46.96,5764
47.28,5529
47.6,5727
47.92,5599
48.24,5532
48.56,5520
48.88,5592
49.2,5547
49.52,5602
49.84,5472
50.16,5626
50.48,6034
50.8,6134
51.12,5861
51.44,5571
51.76,5471
52.08,5539
52.4,5526
52.72,5476
53.04,5515
53.36,5573
53.68,5603
54,5714
54.32,6233
54.64,8177
54.96,6075
55.28,5761
55.6,5913
55.92,5885
56.24,7657
56.56,7776
56.88,5999
57.2,5679
57.52,5773
57.84,5959
58.16,6605
58.48,6187
58.8,7079
59.12,9496
59.44,6455
59.76,6082
60.08,7173
60.4,6112
60.72,5860
61.04,5835
61.36,6144
61.68,5863
62,5604
62.32,5488
62.64,5512
62.96,5548
63.28,5562
63.6,5553
63.92,5525
64.24,5625
64.56,5536
64.88,5494
65.2,5498
65.52,5852
65.84,5569
66.16,5463
66.48,5665
66.8,5512
67.12,5626
67.44,5755
67.76,6018
68.08,8034
68.4,9155
68.72,6491
69.04,5939
69.36,5717
69.68,5555
70,5501
70.32,5500
70.64,5561
70.96,5516
71.28,5831
71.6,5780
71.92,6063
72.24,6485
72.56,6077
72.88,6605
73.2,6307
73.52,5693
73.84,5619
74.16,5643
74.48,5899
74.8,6074
75.12,5703
75.44,5720
75.76,5838
76.08,6358
76.4,6966
76.72,5964
77.04,5547
77.36,5462
77.68,5525
78,5531
78.32,5469
78.64,5538
78.96,5615
79.28,5586
79.6,5555
79.92,5556
80.24,5689
80.56,6096
80.88,6548
81.2,6361
81.52,5860
81.84,6010
82.16,6142
82.48,5639
82.8,5711
83.12,5672
83.44,5758
83.76,6438
84.08,6273
84.4,5848
84.72,5517
85.04,5585
85.36,5563
85.68,5490
86,5589
86.32,5627
86.64,5769
86.96,5695
87.28,5527
87.6,5642
87.92,5590
88.24,5452
88.56,5540
88.88,5446
89.2,5519
89.52,5639
89.84,5583
90.16,5740
90.48,5967
90.8,5751
91.12,5975
91.44,5762
91.76,5694
92.08,5588
92.4,5675
92.72,5688
93.04,5795
93.36,5659
93.68,5523
94,5520
94.32,5552
94.64,5449
94.96,5668
95.28,5896
95.6,6208
95.92,6142
96.24,6038
96.56,5925
96.88,6252
97.2,5926
97.52,5788
97.84,5948
98.16,6149
98.48,6569
98.8,6953
99.12,6439
99.44,5750
99.76,5704
99.9,5563