File: data/xrd_icdd_PDF/00-071-0802 (PD3).csv
6.13022,59.17234
6.31022,58.87376
6.49022,63.74184
6.67022,70.19503
6.85022,68.40968
7.03022,60.48384
7.21022,69.61045
7.39022,70.47495
7.57022,65.43683
7.75022,65.38677
7.93022,64.04595
8.11022,73.52476
8.29022,69.70228
8.47022,64.38337
8.65022,68.26736
8.83022,71.41261
9.01022,72.26973
9.19022,69.80926
9.37022,60.99001
9.55022,67.05764
9.73022,66.64292
9.91022,61.25548
10.09022,54.73475
10.27022,55.99561
10.45022,69.13348
10.63022,73.80797
10.81022,62.48079
10.99022,63.22561
11.17022,57.87581
11.35022,58.61884
11.53022,64.26157
11.71022,66.94385
11.89022,59.99642
12.07022,69.98671
12.25022,173.239
12.43022,285.7147
12.61022,58.44975
12.79022,75.40903
12.97022,59.03639
13.15022,62.49935
13.33022,56.16573
13.51022,62.17234
13.69022,52.16232
13.87022,67.09004
14.05022,61.30933
14.23022,62.257
14.41022,68.65002
14.59022,55.66294
14.77022,65.1027
14.95022,66.18358
15.13022,59.1307
15.31022,65.13611
15.49022,53.20183
15.67022,68.98129
15.85022,57.31428
16.03022,54.361
16.21022,63.60142
16.39022,63.74119
16.57022,70.14902
16.75022,59.10502
16.93022,72.29533
17.11022,88.47516
17.29022,93.11301
17.47022,63.595
17.65022,60.03021
17.83022,59.47801
18.01022,56.97552
18.19022,65.70855
18.37022,84.41259
18.55022,203.427
18.73022,1759.69
18.91022,135.5137
19.09022,70.36077
19.27022,62.63014
19.45022,71.2745
19.63022,75.36537
19.81022,73.79266
19.99022,64.64411
20.17022,56.84022
20.35022,55.78904
20.53022,60.2035
20.71022,59.60355
20.89022,62.32385
21.07022,65.21448
21.25022,71.23484
21.43022,459.417
21.61022,216.077
21.79022,63.10378
21.97022,66.83706
22.15022,48.61574
22.33022,48.71648
22.51022,57.76166
22.69022,49.52958
22.87022,52.90069
23.05022,55.16783
23.23022,49.6686
23.41022,50.80307
23.59022,51.37413
23.77022,47.74169
23.95022,51.91619
24.13022,48.22561
24.31022,50.7902
24.49022,51.53015
24.67022,55.10853
24.85022,410.7256
25.03022,74.70024
25.21022,44.49661
25.39022,47.90544
25.57022,50.66706
25.75022,51.5624
25.93022,54.4346
26.11022,53.21992
26.29022,59.5249
26.47022,49.30681
26.65022,54.116
26.83022,52.79745
27.01022,54.27583
27.19022,52.15813
27.37022,48.40183
27.55022,44.73501
27.73022,53.23558
27.91022,62.70253
28.09022,128.018
28.27022,210.906
28.45022,108.289
28.63022,1009.89
28.81022,168.963
28.99022,55.41174
29.17022,41.53525
29.35022,42.10105
29.53022,39.49062
29.71022,38.11671
29.89022,42.1884
30.07022,37.68114
30.25022,44.7341
30.43022,37.40958
30.61022,40.06121
30.79022,52.62286
30.97022,55.66292
31.15022,35.63128
31.33022,34.25569
31.51022,32.15852
31.69022,35.18613
31.87022,33.30015
32.05022,29.72088
32.23022,30.28648
32.41022,33.71368
32.59022,32.03818
32.77022,35.63818
32.95022,40.48187
33.13022,82.39665
33.31022,37.02435
33.49022,35.66048
33.67022,28.91946
33.85022,30.33808
34.03022,31.41578
34.21022,29.7984
34.39022,29.48827
34.57022,30.34217
34.75022,29.88488
34.93022,33.89787
35.11022,25.68822
35.29022,29.73654
35.47022,34.01897
35.65022,70.12314
35.83022,75.8027
36.01022,93.25233
36.19022,125.632
36.37022,34.58139
36.55022,29.02838
36.73022,28.47368
36.91022,24.89025
37.09022,23.72339
37.27022,29.19948
37.45022,26.76037
37.63022,66.96906
37.81022,106.305
37.99022,290.77
38.17022,60.8014
38.35022,33.76232
38.53022,33.67027
38.71022,27.11946
38.89022,25.24198
39.07022,26.33927
39.25022,26.75545
39.43022,29.22894
39.61022,28.20637
39.79022,28.63522
39.97022,33.52176
40.15022,25.50244
40.33022,65.46624
40.51022,52.52807
40.69022,26.98284
40.87022,26.76659
41.05022,33.95926
41.23022,25.79599
41.41022,20.11917
41.59022,26.80261
41.77022,23.61909
41.95022,30.68455
42.13022,22.26816
42.31022,28.24797
42.49022,24.54587
42.67022,30.99925
42.85022,29.60838
43.03022,30.79748
43.21022,31.58393
43.39022,25.55725
43.57022,42.38749
43.75022,235.173
43.93022,170.263
44.11022,74.12056
44.29022,43.79991
44.47022,30.77866
44.65022,40.76136
44.83022,71.65444
45.01022,29.84375
45.19022,31.19876
45.37022,28.76472
45.55022,27.14922
45.73022,24.62108
45.91022,17.60219
46.09022,28.84918
46.27022,22.48199
46.45022,17.62147
46.63022,22.47273
46.81022,24.49636
46.99022,23.16921
47.17022,22.39685
47.35022,24.80781
47.53022,27.59753
47.71022,54.11821
47.89022,53.86228
48.07022,122.702
48.25022,37.25841
48.43022,22.80762
48.61022,23.47187
48.79022,22.82284
48.97022,20.05762
49.15022,18.78643
49.33022,20.84346
49.51022,24.13725
49.69022,26.25618
49.87022,37.31314
50.05022,68.40756
50.23022,148.613
50.41022,47.69487
50.59022,21.07811
50.77022,21.14337
50.95022,34.56017
51.13022,39.79764
51.31022,26.19893
51.49022,21.10947
51.67022,19.0242
51.85022,14.46862
52.03022,15.25868
52.21022,19.69155
52.39022,19.21073
52.57022,30.15101
52.75022,56.06639
52.93022,156.276
53.11022,104.319
53.29022,98.58881
53.47022,29.23388
53.65022,17.74225
53.83022,23.63612
54.01022,16.52545
54.19022,25.41772
54.37022,29.15623
54.55022,55.19226
54.73022,39.13235
54.91022,28.71229
55.09022,39.51633
55.27022,74.07305
55.45022,29.86861
55.63022,19.34127
55.81022,18.32964
55.99022,26.22244
56.17022,15.92944
56.35022,18.13779
56.53022,17.30646
56.71022,16.53185
56.89022,15.80111
57.07022,14.77545
57.25022,19.42773
57.43022,14.30222
57.61022,15.18152
57.79022,25.72312
57.97022,78.73296
58.15022,75.81652
58.33022,43.83478
58.51022,28.71405
58.69022,24.76241
58.87022,25.38142
59.05022,45.63618
59.19022,58.05279