File: data/xrd_icdd_PDF/00-063-0401 (PD3).csv
5,1215
5.4,989
5.8,875
6.2,836
6.6,716
7,758
7.4,707
7.8,575
8.2,598
8.6,617
9,534
9.4,499
9.8,430
10.2,462
10.6,432
11,434
11.4,437
11.8,407
12.2,344
12.6,390
13,372
13.4,310
13.8,342
14.2,282
14.6,259
15,249
15.4,256
15.8,286
16.2,298
16.6,280
17,270
17.4,266
17.8,222
18.2,259
18.6,256
19,236
19.4,243
19.8,217
20.2,213
20.6,229
21,249
21.4,219
21.8,245
22.2,203
22.6,213
23,196
23.4,208
23.8,199
24.2,231
24.6,370
25,280
25.4,217
25.8,192
26.2,238
26.6,215
27,240
27.4,314
27.8,1804
28.2,337
28.6,191
29,258
29.4,246
29.8,1444
30.2,273
30.6,286
31,418
31.4,730
31.8,282
32.2,684
32.6,345
33,717
33.4,1662
33.8,585
34.2,450
34.6,1229
35,3165
35.4,8510
35.8,785
36.2,1032
36.6,393
37,365
37.4,1243
37.8,802
38.2,1167
38.6,2527
39,751
39.4,340
39.8,215
40.2,224
40.6,222
41,404
41.4,293
41.8,252
42.2,383
42.6,240
43,568
43.4,210
43.8,259
44.2,326
44.6,196
45,182
45.4,247
45.8,407
46.2,323
46.6,360
47,233
47.4,219
47.8,226
48.2,240
48.6,409
49,316
49.4,471
49.8,365
50.2,573
50.6,1663
51,781
51.4,554
51.8,266
52.2,337
52.6,256
53,208
53.4,277
53.8,427
54.2,246
54.6,239
55,310
55.4,367
55.8,721
56.2,395
56.6,705
57,448
57.4,1030
57.8,471
58.2,298
58.6,520
59,474
59.4,379
59.8,866
60.2,303
60.6,291
61,275
61.4,372
61.8,418
62.2,337
62.6,621
63,871
63.4,742
63.8,427
64.2,386
64.6,954
65,644
65.4,383
65.8,513
66.2,282
66.6,245
67,353
67.4,652
67.8,762
68.2,282
68.6,277
69,293
69.4,347
69.8,330
70.2,407
70.6,723
71,797
71.4,333
71.8,321
72.2,432
72.6,594
73,753
73.4,892
73.8,370
74.2,517
74.6,1351
75,478
75.4,270
75.8,316
76.2,310
76.6,427
77,356
77.4,233
77.8,219
78.2,245
78.6,229
79,259
79.4,323
79.8,561
80.2,340
80.6,284
81,280
81.4,307
81.8,266
82.2,340
82.6,224
83,268
83.4,263
83.8,252
84.2,337
84.6,411
85,587
85.4,633
85.8,337
86.2,298
86.6,347
87,289
87.4,402
87.8,353
88.2,453
88.6,457
89,723
89.4,381
89.8,312
90.2,511
90.6,418
91,249
91.4,277
91.8,390
92.2,344
92.6,298
93,300
93.4,409
93.8,425
94.2,319
94.6,386
95,374
95.4,464
95.8,400
96.2,314
96.6,337
97,467
97.4,504
97.8,418
98.2,326
98.6,390
99,439
99.4,543
99.8,601
100.2,471
100.6,494
101,471
101.4,460
101.8,365
102.2,499
102.6,448
103,450
103.4,307
103.8,305
104.2,349
104.6,316
105,386
105.4,344
105.8,444
106.2,478
106.6,587
107,400
107.4,333
107.8,335
108.2,351
108.6,363
109,356
109.4,351
109.8,358
110.2,298
110.6,379
111,386
111.4,524
111.8,545
112.2,635
112.6,554
113,529
113.4,584
113.8,453
114.2,388
114.6,418
115,420
115.4,446
115.8,312
116.2,310
116.6,312
117,379
117.4,425
117.8,418
118.2,388
118.6,464
119,504
119.4,469
119.8,420
120.02,409